#Digilent WaveForms Oscilloscope Acquisition
#Device Name: Discovery2
#Serial Number: SN:210321A7FEC1
#Date Time: 2018-11-30 13:32:30.339

Time (s),Math 1 (V)
-5,-0.046058
-4.99875,-0.0158137
-4.9975,0.0123823
-4.99625,0.0264756
-4.995,0.0338568
-4.99375,0.0405967
-4.9925,0.0766492
-4.99125,0.081424
-4.99,0.0397528
-4.98875,0.0118658
-4.9875,-0.0132993
-4.98625,-0.0263824
-4.985,-0.0334267
-4.98375,-0.0401713
-4.9825,-0.0735251
-4.98125,-0.0806572
-4.98,-0.046058
-4.97875,-0.0158091
-4.9775,0.0120455
-4.97625,0.0264756
-4.975,0.0338568
-4.97375,0.04026
-4.9725,0.0763125
-4.97125,0.0817608
-4.97,0.0400895
-4.96875,0.0118612
-4.9675,-0.0129625
-4.96625,-0.0263824
-4.965,-0.0334267
-4.96375,-0.0398345
-4.9625,-0.0731883
-4.96125,-0.080994
-4.96,-0.0463948
-4.95875,-0.0161459
-4.9575,0.0120455
-4.95625,0.0264756
-4.955,0.0338568
-4.95375,0.04026
-4.9525,0.0759757
-4.95125,0.0820976
-4.95,0.0404263
-4.94875,0.012198
-4.9475,-0.0129625
-4.94625,-0.0260456
-4.945,-0.0334267
-4.94375,-0.0398345
-4.9425,-0.0728515
-4.94125,-0.0813308
-4.94,-0.0463948
-4.93875,-0.0161459
-4.9375,0.0117087
-4.93625,0.0264756
-4.935,0.03352
-4.93375,0.0399232
-4.9325,0.0756343
-4.93125,0.0820929
-4.93,0.0407631
-4.92875,0.0125347
-4.9275,-0.0129671
-4.92625,-0.0260456
-4.925,-0.0334313
-4.92375,-0.0394978
-4.9225,-0.0728515
-4.92125,-0.0816675
-4.92,-0.0467316
-4.91875,-0.0164826
-4.9175,0.0117087
-4.91625,0.0264756
-4.915,0.03352
-4.91375,0.0399232
-4.9125,0.0752975
-4.91125,0.0820929
-4.91,0.0410998
-4.90875,0.0128715
-4.9075,-0.0126304
-4.90625,-0.026387
-4.905,-0.0334313
-4.90375,-0.0394978
-4.9025,-0.0725148
-4.90125,-0.0816675
-4.9,-0.0470683
-4.89875,-0.0168194
-4.8975,0.0117133
-4.89625,0.0261389
-4.895,0.03352
-4.89375,0.0395864
-4.8925,0.0753022
-4.89125,0.0824297
-4.89,0.0410952
-4.88875,0.0128715
-4.8875,-0.0126304
-4.88625,-0.026387
-4.885,-0.0334313
-4.88375,-0.0394978
-4.8825,-0.0725148
-4.88125,-0.0816629
-4.88,-0.0474051
-4.87875,-0.0171562
-4.8775,0.0110352
-4.87625,0.0261389
-4.875,0.03352
-4.87375,0.0395864
-4.8725,0.074624
-4.87125,0.0824297
-4.87,0.0414366
-4.86875,0.0132083
-4.8675,-0.0122936
-4.86625,-0.026387
-4.865,-0.0334313
-4.86375,-0.0394978
-4.8625,-0.0718412
-4.86125,-0.0819997
-4.86,-0.0474051
-4.85875,-0.0174929
-4.8575,0.0113766
-4.85625,0.0261389
-4.855,0.03352
-4.85375,0.0395864
-4.8525,0.074624
-4.85125,0.0827665
-4.85,0.041432
-4.84875,0.0132036
-4.8475,-0.0122936
-4.84625,-0.026387
-4.845,-0.0334313
-4.84375,-0.0394978
-4.8425,-0.0718412
-4.84125,-0.0819997
-4.84,-0.0480786
-4.83875,-0.0178297
-4.8375,0.0113766
-4.83625,0.0258021
-4.835,0.0331832
-4.83375,0.0392497
-4.8325,0.0739505
-4.83125,0.0827619
-4.83,0.0417687
-4.82875,0.0135404
-4.8275,-0.0119568
-4.82625,-0.0260502
-4.825,-0.0330946
-4.82375,-0.039161
-4.8225,-0.0715045
-4.82125,-0.0823364
-4.82,-0.0484154
-4.81875,-0.0178251
-4.8175,0.0110398
-4.81625,0.0258021
-4.815,0.0331832
-4.81375,0.0392497
-4.8125,0.0739505
-4.81125,0.08344
-4.81,0.0421055
-4.80875,0.0138772
-4.8075,-0.0116201
-4.80625,-0.0260502
-4.805,-0.0330946
-4.80375,-0.039161
-4.8025,-0.0715045
-4.80125,-0.0826732
-4.8,-0.0484154
-4.79875,-0.0181619
-4.7975,0.010703
-4.79625,0.0261435
-4.795,0.0331832
-4.79375,0.0392497
-4.7925,0.0739505
-4.79125,0.0834354
-4.79,0.0424423
-4.78875,0.0138772
-4.7875,-0.0116201
-4.78625,-0.0260502
-4.785,-0.0330946
-4.78375,-0.039161
-4.7825,-0.0711677
-4.78125,-0.0826732
-4.78,-0.0484108
-4.77875,-0.0184986
-4.7775,0.0103663
-4.77625,0.0258021
-4.775,0.0331832
-4.77375,0.0392497
-4.7725,0.0736137
-4.77125,0.0837722
-4.77,0.042779
-4.76875,0.0142139
-4.7675,-0.0116247
-4.76625,-0.0260502
-4.765,-0.0330946
-4.76375,-0.0388242
-4.7625,-0.0708309
-4.76125,-0.08301
-4.76,-0.0490889
-4.75875,-0.0184986
-4.7575,0.0103663
-4.75625,0.0258067
-4.755,0.0331832
-4.75375,0.0392497
-4.7525,0.0736137
-4.75125,0.0837722
-4.75,0.0431158
-4.74875,0.0145507
-4.7475,-0.0112833
-4.74625,-0.0260502
-4.745,-0.0330946
-4.74375,-0.0388242
-4.7425,-0.0704942
-4.74125,-0.0830053
-4.74,-0.0490843
-4.73875,-0.0188354
-4.7375,0.0103709
-4.73625,0.0254653
-4.735,0.0331832
-4.73375,0.0389129
-4.7325,0.0729402
-4.73125,0.0834354
-4.73,0.042779
-4.72875,0.0142139
-4.7275,-0.0112879
-4.72625,-0.0257134
-4.725,-0.0327578
-4.72375,-0.0388242
-4.7225,-0.0704895
-4.72125,-0.0830053
-4.72,-0.0490843
-4.71875,-0.0191722
-4.7175,0.0100341
-4.71625,0.0258021
-4.715,0.0331832
-4.71375,0.0385761
-4.7125,0.0729402
-4.71125,0.0844457
-4.71,0.0434526
-4.70875,0.0145461
-4.7075,-0.0109512
-4.70625,-0.0257134
-4.705,-0.0330946
-4.70375,-0.0388242
-4.7025,-0.0701574
-4.70125,-0.0830053
-4.7,-0.0494211
-4.69875,-0.0191722
-4.6975,0.0100341
-4.69625,0.0258067
-4.695,0.0328465
-4.69375,0.0385761
-4.6925,0.0729402
-4.69125,0.0844411
-4.69,0.0437893
-4.68875,0.0148828
-4.6875,-0.0106144
-4.68625,-0.0257134
-4.685,-0.0327578
-4.68375,-0.0384875
-4.6825,-0.0698206
-4.68125,-0.0833421
-4.68,-0.0497579
-4.67875,-0.0195089
-4.6775,0.00936059
-4.67625,0.0254699
-4.675,0.0331832
-4.67375,0.0385761
-4.6725,0.0726034
-4.67125,0.0847825
-4.67,0.0441261
-4.66875,0.0152196
-4.6675,-0.0106144
-4.66625,-0.0253767
-4.665,-0.032421
-4.66375,-0.0384875
-4.6625,-0.0694839
-4.66125,-0.0836789
-4.66,-0.0500946
-4.65875,-0.0195043
-4.6575,0.00969736
-4.65625,0.0254699
-4.655,0.0328465
-4.65375,0.0382394
-4.6525,0.0719299
-4.65125,0.0851146
-4.65,0.0447996
-4.64875,0.0155564
-4.6475,-0.0102776
-4.64625,-0.0253767
-4.645,-0.0327578
-4.64375,-0.0388242
-4.6425,-0.0694839
-4.64125,-0.0833421
-4.64,-0.0500946
-4.63875,-0.0195043
-4.6375,0.00936059
-4.63625,0.0254699
-4.635,0.0328465
-4.63375,0.0382394
-4.6325,0.0722666
-4.63125,0.0851146
-4.63,0.0447996
-4.62875,0.0155564
-4.6275,-0.0102776
-4.62625,-0.085681
-4.625,-0.0615216
-4.62375,-0.0285785
-4.6225,0.00163806
-4.62125,0.021438
-4.62,0.0308351
-4.61875,0.0365417
-4.6175,0.0587867
-4.61625,0.0867753
-4.615,0.0579058
-4.61375,0.0229421
-4.6125,-0.00357001
-4.61125,-0.0223643
-4.61,-0.0310878
-4.60875,-0.0371312
-4.6075,-0.0563453
-4.60625,-0.0850028
-4.605,-0.0618584
-4.60375,-0.0289153
-4.6025,0.0013013
-4.60125,0.021438
-4.6,0.0308351
-4.59875,0.036883
-4.5975,0.0584546
-4.59625,0.0867707
-4.595,0.0582426
-4.59375,0.0232789
-4.5925,-0.00289648
-4.59125,-0.0216861
-4.59,-0.0304097
-4.58875,-0.0371312
-4.5875,-0.0563453
-4.58625,-0.0853396
-4.585,-0.0621951
-4.58375,-0.0289153
-4.5825,0.00164268
-4.58125,0.0217794
-4.58,0.0308351
-4.57875,0.036883
-4.5775,0.0581178
-4.57625,0.0867707
-4.575,0.0585793
-4.57375,0.0236157
-4.5725,-0.00289648
-4.57125,-0.0216907
-4.57,-0.0307465
-4.56875,-0.0371312
-4.5675,-0.0556718
-4.56625,-0.0853396
-4.565,-0.0625319
-4.56375,-0.0295888
-4.5625,0.000964531
-4.56125,0.0211012
-4.56,0.0304983
-4.55875,0.0365417
-4.5575,0.0581132
-4.55625,0.0864339
-4.555,0.0592529
-4.55375,0.0236157
-4.5525,-0.00289648
-4.55125,-0.0216907
-4.55,-0.0307511
-4.54875,-0.0371312
-4.5475,-0.055335
-4.54625,-0.0853396
-4.545,-0.0628687
-4.54375,-0.0295888
-4.5425,0.000969151
-4.54125,0.0214426
-4.54,0.0311765
-4.53875,0.036883
-4.5375,0.0574397
-4.53625,0.0864339
-4.535,0.0595896
-4.53375,0.0239524
-4.5325,-0.0029011
-4.53125,-0.0216907
-4.53,-0.0307511
-4.52875,-0.0371312
-4.5275,-0.055335
-4.52625,-0.0853396
-4.525,-0.0632054
-4.52375,-0.0299256
-4.5225,0.000632384
-4.52125,0.0207645
-4.52,0.0304983
-4.51875,0.0365417
-4.5175,0.0574397
-4.51625,0.0864339
-4.515,0.059585
-4.51375,0.0239524
-4.5125,-0.0029011
-4.51125,-0.0216907
-4.51,-0.0307511
-4.50875,-0.0371312
-4.5075,-0.0549983
-4.50625,-0.0849982
-4.505,-0.0635422
-4.50375,-0.0302624
-4.5025,0.000632384
-4.50125,0.0211058
-4.5,0.0304983
-4.49875,0.0365417
-4.4975,0.0571029
-4.49625,0.0864339
-4.495,0.0599218
-4.49375,0.0239478
-4.4925,-0.00256433
-4.49125,-0.021354
-4.49,-0.0304143
-4.48875,-0.0371312
-4.4875,-0.0549983
-4.48625,-0.0849982
-4.485,-0.0635376
-4.48375,-0.0305991
-4.4825,0.000295618
-4.48125,0.0211058
-4.48,0.0304983
-4.47875,0.0362049
-4.4775,0.0564294
-4.47625,0.0864339
-4.475,0.0602586
-4.47375,0.0242846
-4.4725,-0.00222756
-4.47125,-0.021354
-4.47,-0.0304143
-4.46875,-0.0371312
-4.4675,-0.0549983
-4.46625,-0.0849982
-4.465,-0.0635376
-4.46375,-0.0302577
-4.4625,0.000295618
-4.46125,0.0207691
-4.46,0.0308397
-4.45875,0.0365417
-4.4575,0.0564294
-4.45625,0.0864339
-4.455,0.0605953
-4.45375,0.0242846
-4.4525,-0.00222756
-4.45125,-0.021354
-4.45,-0.0307511
-4.44875,-0.0371312
-4.4475,-0.0543247
-4.44625,-0.0846615
-4.445,-0.0642111
-4.44375,-0.0305945
-4.4425,-4.11489e-05
-4.44125,0.0207691
-4.44,0.0308397
-4.43875,0.0365417
-4.4375,0.0564294
-4.43625,0.0864339
-4.435,0.0609321
-4.43375,0.0246214
-4.4325,-0.0018908
-4.43125,-0.021354
-4.43,-0.0304143
-4.42875,-0.0371312
-4.4275,-0.0543247
-4.42625,-0.0846615
-4.425,-0.0645479
-4.42375,-0.0305945
-4.4225,-3.65285e-05
-4.42125,0.0204323
-4.42,0.030503
-4.41875,0.0362049
-4.4175,0.0560926
-4.41625,0.0864339
-4.415,0.0612689
-4.41375,0.0249581
-4.4125,-0.00223218
-4.41125,-0.0210172
-4.41,-0.0304143
-4.40875,-0.0371312
-4.4075,-0.053988
-4.40625,-0.0849982
-4.405,-0.0645479
-4.40375,-0.0309313
-4.4025,-0.000373295
-4.40125,0.0204323
-4.4,0.030503
-4.39875,0.0362049
-4.3975,0.0560926
-4.39625,0.0864339
-4.395,0.0616056
-4.39375,0.0249581
-4.3925,-0.00189542
-4.39125,-0.0210172
-4.39,-0.0304143
-4.38875,-0.0371312
-4.3875,-0.0536512
-4.38625,-0.0846615
-4.385,-0.0648846
-4.38375,-0.0309313
-4.3825,-0.000710062
-4.38125,0.0207737
-4.38,0.030503
-4.37875,0.0362049
-4.3775,0.0554191
-4.37625,0.0864339
-4.375,0.061601
-4.37375,0.0252949
-4.3725,-0.00155865
-4.37125,-0.0210172
-4.37,-0.0304143
-4.36875,-0.0371312
-4.3675,-0.0533144
-4.36625,-0.0846615
-4.365,-0.06488
-4.36375,-0.0316048
-4.3625,-0.000710062
-4.36125,0.0200955
-4.36,0.0301662
-4.35875,0.0362049
-4.3575,0.0550823
-4.35625,0.0864339
-4.355,0.0619378
-4.35375,0.0252949
-4.3525,-0.00155865
-4.35125,-0.0206804
-4.35,-0.0304143
-4.34875,-0.0371312
-4.3475,-0.0533144
-4.34625,-0.0846615
-4.345,-0.0652168
-4.34375,-0.0316048
-4.3425,-0.00104683
-4.34125,0.0204369
-4.34,0.030503
-4.33875,0.0362049
-4.3375,0.0550823
-4.33625,0.0857558
-4.335,0.0626113
-4.33375,0.0256317
-4.3325,-0.00122188
-4.33125,-0.0210218
-4.33,-0.0300775
-4.32875,-0.0371312
-4.3275,-0.0529777
-4.32625,-0.0846615
-4.325,-0.0655535
-4.32375,-0.0319416
-4.3225,-0.00138359
-4.32125,0.0200955
-4.32,0.0301662
-4.31875,0.0362049
-4.3175,0.0547455
-4.31625,0.0860972
-4.315,0.0626113
-4.31375,0.0259684
-4.3125,-0.000885117
-4.31125,-0.0203437
-4.31,-0.0300775
-4.30875,-0.0367944
-4.3075,-0.0526409
-4.30625,-0.0843247
-4.305,-0.0658903
-4.30375,-0.0322783
-4.3025,-0.00138359
-4.30125,0.0204369
-4.3,0.0301662
-4.29875,0.0362049
-4.2975,0.0544088
-4.29625,0.0857558
-4.295,0.0629481
-4.29375,0.0259684
-4.2925,-0.000885117
-4.29125,-0.020685
-4.29,-0.0300775
-4.28875,-0.0367944
-4.2875,-0.0522995
-4.28625,-0.0843201
-4.285,-0.0662271
-4.28375,-0.0322783
-4.2825,-0.00137897
-4.28125,0.0201002
-4.28,0.0301662
-4.27875,0.0362049
-4.2775,0.054072
-4.27625,0.0857558
-4.275,0.0636216
-4.27375,0.0263052
-4.2725,-0.00054835
-4.27125,-0.0200069
-4.27,-0.0300775
-4.26875,-0.0367944
-4.2675,-0.0519628
-4.26625,-0.0843201
-4.265,-0.0665638
-4.26375,-0.0326151
-4.2625,-0.00171574
-4.26125,0.0201002
-4.26,0.0301662
-4.25875,0.0362049
-4.2575,0.054072
-4.25625,0.0860972
-4.255,0.0636216
-4.25375,0.0263052
-4.2525,-0.00054835
-4.25125,-0.0203483
-4.25,-0.0297408
-4.24875,-0.0367944
-4.2475,-0.0519674
-4.24625,-0.0843247
-4.245,-0.0665592
-4.24375,-0.0329472
-4.2425,-0.00171574
-4.24125,0.0201002
-4.24,0.0298294
-4.23875,0.0362049
-4.2375,0.0537352
-4.23625,0.085419
-4.235,0.0642951
-4.23375,0.026642
-4.2325,-0.00055297
-4.23125,-0.0203483
-4.23,-0.0297408
-4.22875,-0.0367944
-4.2275,-0.0519674
-4.22625,-0.0839833
-4.225,-0.0669006
-4.22375,-0.0329472
-4.2225,-0.00205251
-4.22125,0.0201002
-4.22,0.0301708
-4.21875,0.0362049
-4.2175,0.0533985
-4.21625,0.085419
-4.215,0.0646319
-4.21375,0.0266373
-4.2125,-0.000216204
-4.21125,-0.0203483
-4.21,-0.0297408
-4.20875,-0.0367944
-4.2075,-0.0516306
-4.20625,-0.0839833
-4.205,-0.0672328
-4.20375,-0.033284
-4.2025,-0.00238927
-4.20125,0.0197634
-4.2,0.0301708
-4.19875,0.0362049
-4.1975,0.0533985
-4.19625,0.085419
-4.195,0.0646273
-4.19375,0.0266373
-4.1925,0.000120563
-4.19125,-0.0200115
-4.19,-0.0297408
-4.18875,-0.0367944
-4.1875,-0.0512938
-4.18625,-0.0836465
-4.185,-0.0672328
-4.18375,-0.033284
-4.1825,-0.00272604
-4.18125,0.0197634
-4.18,0.0294927
-4.17875,0.0362049
-4.1775,0.0527249
-4.17625,0.085419
-4.175,0.0653008
-4.17375,0.0269741
-4.1725,0.000120563
-4.17125,-0.0200115
-4.17,-0.0297408
-4.16875,-0.0367944
-4.1675,-0.0512938
-4.16625,-0.0836465
-4.165,-0.0675695
-4.16375,-0.0336208
-4.1625,-0.00306281
-4.16125,0.0194266
-4.16,0.0294927
-4.15875,0.0362049
-4.1575,0.0527249
-4.15625,0.0850823
-4.155,0.0656376
-4.15375,0.0273109
-4.1525,0.000457329
-4.15125,-0.0200115
-4.15,-0.0297408
-4.14875,-0.0367944
-4.1475,-0.0509571
-4.14625,-0.0836465
-4.145,-0.0682431
-4.14375,-0.0339575
-4.1425,-0.00305819
-4.14125,0.0194266
-4.14,0.0298341
-4.13875,0.0362049
-4.1375,0.0527249
-4.13625,0.085419
-4.135,0.0656376
-4.13375,0.0273109
-4.1325,0.000457329
-4.13125,-0.0200115
-4.13,-0.029404
-4.12875,-0.036453
-4.1275,-0.0506157
-4.12625,-0.0833098
-4.125,-0.0679017
-4.12375,-0.0342943
-4.1225,-0.00305819
-4.12125,0.0190899
-4.12,0.0294927
-4.11875,0.0358681
-4.1175,0.0523882
-4.11625,0.0850823
-4.115,0.0663111
-4.11375,0.0276476
-4.1125,0.000452709
-4.11125,-0.0200115
-4.11,-0.0297408
-4.10875,-0.0364576
-4.1075,-0.0502789
-4.10625,-0.0833098
-4.105,-0.0685798
-4.10375,-0.0342943
-4.1025,-0.00305819
-4.10125,0.0194312
-4.1,0.0294927
-4.09875,0.0362049
-4.0975,0.0520514
-4.09625,0.0850823
-4.095,0.0663111
-4.09375,0.0279844
-4.0925,0.00112624
-4.09125,-0.0196747
-4.09,-0.029404
-4.08875,-0.0364576
-4.0875,-0.0502835
-4.08625,-0.0833098
-4.085,-0.0685752
-4.08375,-0.0346311
-4.0825,-0.00339495
-4.08125,0.0194312
-4.08,0.0294973
-4.07875,0.0358681
-4.0775,0.0517146
-4.07625,0.0850823
-4.075,0.0666479
-4.07375,0.0283212
-4.0725,0.00112624
-4.07125,-0.019338
-4.07,-0.029404
-4.06875,-0.0361162
-4.0675,-0.0499422
-4.06625,-0.0833098
-4.065,-0.068912
-4.06375,-0.0349678
-4.0625,-0.00373172
-4.06125,0.0190945
-4.06,0.0291559
-4.05875,0.0358681
-4.0575,0.0517146
-4.05625,0.0850823
-4.055,0.0666433
-4.05375,0.0283212
-4.0525,0.00146301
-4.05125,-0.0196794
-4.05,-0.0294086
-4.04875,-0.0361162
-4.0475,-0.0502835
-4.04625,-0.0833098
-4.045,-0.0692487
-4.04375,-0.0353046
-4.0425,-0.00406849
-4.04125,0.0190945
-4.04,0.0294973
-4.03875,0.0358681
-4.0375,0.0513779
-4.03625,0.0847455
-4.035,0.0673168
-4.03375,0.0286579
-4.0325,0.00146301
-4.03125,-0.0196794
-4.03,-0.0294086
-4.02875,-0.0361162
-4.0275,-0.0496054
-4.02625,-0.082973
-4.025,-0.0695855
-4.02375,-0.0349632
-4.0225,-0.00440525
-4.02125,0.0187577
-4.02,0.0291605
-4.01875,0.0358681
-4.0175,0.0510411
-4.01625,0.0844087
-4.015,0.0676536
-4.01375,0.0289947
-4.0125,0.00179978
-4.01125,-0.0196794
-4.01,-0.0290672
-4.00875,-0.0361162
-4.0075,-0.04961
-4.00625,-0.082973
-4.005,-0.0699223
-4.00375,-0.0356414
-4.0025,-0.00440525
-4.00125,0.0187577
-4,0.0294973
-3.99875,0.0358681
-3.9975,0.0510411
-3.99625,0.0847455
-3.995,0.0679903
-3.99375,0.0286533
-3.9925,0.00213654
-3.99125,-0.0190058
-3.99,-0.0290672
-3.98875,-0.0361162
-3.9875,-0.0489319
-3.98625,-0.0822948
-3.985,-0.0699177
-3.98375,-0.0353
-3.9825,-0.00440063
-3.98125,0.0187577
-3.98,0.0294973
-3.97875,0.0358681
-3.9775,0.0507043
-3.97625,0.0847455
-3.975,0.0683271
-3.97375,0.0293315
-3.9725,0.00247331
-3.97125,-0.0190058
-3.97,-0.0294086
-3.96875,-0.0361209
-3.9675,-0.0489319
-3.96625,-0.082973
-3.965,-0.0695809
-3.96375,-0.0356368
-3.9625,-0.0047374
-3.96125,0.0180842
-3.96,0.0291605
-3.95875,0.0355314
-3.9575,0.0503676
-3.95625,0.0844087
-3.955,0.0686639
-3.95375,0.0293269
-3.9525,0.00213192
-3.95125,-0.0190058
-3.95,-0.0290719
-3.94875,-0.0357795
-3.9475,-0.0485951
-3.94625,-0.0822948
-3.945,-0.0705912
-3.94375,-0.0359735
-3.9425,-0.00507417
-3.94125,0.018421
-3.94,0.0294973
-3.93875,0.0355314
-3.9375,0.0500308
-3.93625,0.0840673
-3.935,0.0686592
-3.93375,0.0293269
-3.9325,0.00246869
-3.93125,-0.0190058
-3.93,-0.0294086
-3.92875,-0.0357795
-3.9275,-0.0489319
-3.92625,-0.0822948
-3.925,-0.0702544
-3.92375,-0.0363103
-3.9225,-0.00541093
-3.92125,0.0184256
-3.92,0.0291605
-3.91875,0.0355314
-3.9175,0.0503676
-3.91625,0.0840673
-3.915,0.068996
-3.91375,0.0296636
-3.9125,0.00280546
-3.91125,-0.0190058
-3.91,-0.0290719
-3.90875,-0.0357795
-3.9075,-0.0479216
-3.90625,-0.0819581
-3.905,-0.0712647
-3.90375,-0.0363103
-3.9025,-0.00540631
-3.90125,0.0180842
-3.9,0.0291605
-3.89875,0.0355314
-3.8975,0.0500308
-3.89625,0.0840673
-3.895,0.068996
-3.89375,0.0296636
-3.8925,0.0031376
-3.89125,-0.0186691
-3.89,-0.0290719
-3.88875,-0.0357795
-3.8875,-0.0479216
-3.88625,-0.0822948
-3.885,-0.070928
-3.88375,-0.0366471
-3.8825,-0.00574308
-3.88125,0.0180888
-3.88,0.0291605
-3.87875,0.0351946
-3.8775,0.0493573
-3.87625,0.0837306
-3.875,0.0696695
-3.87375,0.0300004
-3.8725,0.00314222
-3.87125,-0.0186691
-3.87,-0.0290719
-3.86875,-0.0361209
-3.8675,-0.0475848
-3.86625,-0.0819581
-3.865,-0.0716015
-3.86375,-0.0366471
-3.8625,-0.00574308
-3.86125,0.0177474
-3.86,0.0288238
-3.85875,0.0355314
-3.8575,0.0493573
-3.85625,0.0837306
-3.855,0.0700063
-3.85375,0.0303372
-3.8525,0.00347899
-3.85125,-0.0186691
-3.85,-0.0290719
-3.84875,-0.0361209
-3.8475,-0.047248
-3.84625,-0.0819581
-3.845,-0.0715969
-3.84375,-0.0369838
-3.8425,-0.00641661
-3.84125,0.0180888
-3.84,0.0291605
-3.83875,0.0351946
-3.8375,0.0493573
-3.83625,0.0837306
-3.835,0.0700017
-3.83375,0.0306739
-3.8325,0.00347437
-3.83125,-0.0183369
-3.83,-0.0290719
-3.82875,-0.0361209
-3.8275,-0.047248
-3.82625,-0.0816213
-3.825,-0.0719336
-3.82375,-0.0369838
-3.8225,-0.00641661
-3.82125,0.017752
-3.82,0.0291605
-3.81875,0.0351946
-3.8175,0.0486837
-3.81625,0.0837306
-3.815,0.0703385
-3.81375,0.0306739
-3.8125,0.00347437
-3.81125,-0.0183323
-3.81,-0.0287351
-3.80875,-0.0357841
-3.8075,-0.0469113
-3.80625,-0.0816213
-3.805,-0.0722704
-3.80375,-0.0373206
-3.8025,-0.00675338
-3.80125,0.017752
-3.8,0.0288238
-3.79875,0.0351946
-3.7975,0.048347
-3.79625,0.0833938
-3.795,0.0706752
-3.79375,0.0310107
-3.7925,0.0041479
-3.79125,-0.0176588
-3.79,-0.0287351
-3.78875,-0.0354427
-3.7875,-0.047248
-3.78625,-0.0816213
-3.785,-0.0726072
-3.78375,-0.0376574
-3.7825,-0.00674876
-3.78125,0.0174153
-3.78,0.0288238
-3.77875,0.0351946
-3.7775,0.048347
-3.77625,0.0833938
-3.775,0.0713488
-3.77375,0.0313475
-3.7725,0.0041479
-3.77125,-0.0180001
-3.77,-0.0287351
-3.76875,-0.0354427
-3.7675,-0.0465745
-3.76625,-0.0812845
-3.765,-0.0729439
-3.76375,-0.0376527
-3.7625,-0.00708553
-3.76125,0.0174153
-3.76,0.0291651
-3.75875,0.0351946
-3.7575,0.0480102
-3.75625,0.0833938
-3.755,0.0713488
-3.75375,0.0313475
-3.7525,0.00414328
-3.75125,-0.0180001
-3.75,-0.0287351
-3.74875,-0.0354427
-3.7475,-0.0465745
-3.74625,-0.0812845
-3.745,-0.0729393
-3.74375,-0.0379941
-3.7425,-0.00742229
-3.74125,0.0174153
-3.74,0.028487
-3.73875,0.0351946
-3.7375,0.0476734
-3.73625,0.0827203
-3.735,0.0716855
-3.73375,0.0316842
-3.7325,0.00448005
-3.73125,-0.0176634
-3.73,-0.0287351
-3.72875,-0.0357841
-3.7275,-0.0462377
-3.72625,-0.0812845
-3.725,-0.0732761
-3.72375,-0.0379895
-3.7225,-0.00775906
-3.72125,0.0170785
-3.72,0.0288238
-3.71875,0.0351992
-3.7175,0.0476734
-3.71625,0.083057
-3.715,0.0723591
-3.71375,0.0316842
-3.7125,0.00448005
-3.71125,-0.0176634
-3.71,-0.0287351
-3.70875,-0.0351059
-3.7075,-0.0455642
-3.70625,-0.0809432
-3.705,-0.0736128
-3.70375,-0.0383309
-3.7025,-0.00775906
-3.70125,0.0170785
-3.7,0.0288238
-3.69875,0.0348578
-3.6975,0.0473367
-3.69625,0.083057
-3.695,0.0723591
-3.69375,0.0316842
-3.6925,0.00481681
-3.69125,-0.0173266
-3.69,-0.0287351
-3.68875,-0.0351059
-3.6875,-0.0455642
-3.68625,-0.0809432
-3.685,-0.0736128
-3.68375,-0.0383263
-3.6825,-0.00775444
-3.68125,0.0170831
-3.68,0.028487
-3.67875,0.0351946
-3.6775,0.0469999
-3.67625,0.083057
-3.675,0.0726912
-3.67375,0.032021
-3.6725,0.00549035
-3.67125,-0.0173266
-3.67,-0.0287351
-3.66875,-0.0354473
-3.6675,-0.0455642
-3.66625,-0.0809432
-3.665,-0.0739496
-3.66375,-0.0383263
-3.6625,-0.00809121
-3.66125,0.0167464
-3.66,0.028487
-3.65875,0.0351946
-3.6575,0.0469999
-3.65625,0.0827156
-3.655,0.073028
-3.65375,0.0320164
-3.6525,0.00549035
-3.65125,-0.0169898
-3.65,-0.0283983
-3.64875,-0.0351059
-3.6475,-0.0452274
-3.64625,-0.0806064
-3.645,-0.0742818
-3.64375,-0.0389998
-3.6425,-0.00876474
-3.64125,0.0167464
-3.64,0.028487
-3.63875,0.0348578
-3.6375,0.0466631
-3.63625,0.0827156
-3.635,0.0733647
-3.63375,0.0323578
-3.6325,0.00549035
-3.63125,-0.0169898
-3.63,-0.0283983
-3.62875,-0.0347692
-3.6275,-0.0455642
-3.62625,-0.0806064
-3.625,-0.0746231
-3.62375,-0.0389998
-3.6225,-0.00876474
-3.62125,0.0160682
-3.62,0.028487
-3.61875,0.0348578
-3.6175,0.045985
-3.61625,0.0823789
-3.615,0.0737015
-3.61375,0.0323531
-3.6125,0.00548573
-3.61125,-0.0169898
-3.61,-0.0283983
-3.60875,-0.0351106
-3.6075,-0.0448907
-3.60625,-0.0802696
-3.605,-0.0749599
-3.60375,-0.0393366
-3.6025,-0.0091015
-3.60125,0.0164096
-3.6,0.0281502
-3.59875,0.0348578
-3.5975,0.0456482
-3.59625,0.0820421
-3.595,0.0740383
-3.59375,0.0323531
-3.5925,0.00615926
-3.59125,-0.0169945
-3.59,-0.0287397
-3.58875,-0.0354473
-3.5875,-0.0448907
-3.58625,-0.0799329
-3.585,-0.0749553
-3.58375,-0.0396733
-3.5825,-0.00943827
-3.58125,0.0160728
-3.58,0.0284916
-3.57875,0.0348624
-3.5775,0.0459896
-3.57625,0.0820421
-3.575,0.074375
-3.57375,0.0330267
-3.5725,0.00615926
-3.57125,-0.0166531
-3.57,-0.0283983
-3.56875,-0.0354473
-3.5675,-0.0445539
-3.56625,-0.0799329
-3.565,-0.0752921
-3.56375,-0.0396733
-3.5625,-0.00977504
-3.56125,0.0157361
-3.56,0.0284916
-3.55875,0.0348578
-3.5575,0.0456528
-3.55625,0.0817054
-3.555,0.0743704
-3.55375,0.0330267
-3.5525,0.00615926
-3.55125,-0.0166577
-3.55,-0.0283983
-3.54875,-0.0351106
-3.5475,-0.0442171
-3.54625,-0.0795961
-3.545,-0.0756288
-3.54375,-0.0400101
-3.5425,-0.00943365
-3.54125,0.0160728
-3.54,0.0284916
-3.53875,0.0345211
-3.5375,0.0453115
-3.53625,0.0817054
-3.535,0.0747072
-3.53375,0.0333634
-3.5325,0.00683279
-3.53125,-0.0166577
-3.53,-0.0280616
-3.52875,-0.0351106
-3.5275,-0.0442171
-3.52625,-0.0795961
-3.525,-0.0759656
-3.52375,-0.0403469
-3.5225,-0.0101072
-3.52125,0.0153993
-3.52,0.0284916
-3.51875,0.0348624
-3.5175,0.0449747
-3.51625,0.0817054
-3.515,0.0753807
-3.51375,0.0337002
-3.5125,0.00682817
-3.51125,-0.0163209
-3.51,-0.0280616
-3.50875,-0.0351106
-3.5075,-0.0442171
-3.50625,-0.0795961
-3.505,-0.075961
-3.50375,-0.0403469
-3.5025,-0.0101072
-3.50125,0.0153993
-3.5,0.0284916
-3.49875,0.0348624
-3.4975,0.0449793
-3.49625,0.0813686
-3.495,0.0753807
-3.49375,0.0337002
-3.4925,0.00716494
-3.49125,-0.0163209
-3.49,-0.0280616
-3.48875,-0.0347738
-3.4875,-0.0438804
-3.48625,-0.0792593
-3.485,-0.0762977
-3.48375,-0.0406836
-3.4825,-0.010444
-3.48125,0.0150625
-3.48,0.0281548
-3.47875,0.0345211
-3.4775,0.0446379
-3.47625,0.0813686
-3.475,0.0753761
-3.47375,0.0343737
-3.4725,0.00750171
-3.47125,-0.0159842
-3.47,-0.028403
-3.46875,-0.0347738
-3.4675,-0.0438804
-3.46625,-0.0789226
-3.465,-0.0762977
-3.46375,-0.0410158
-3.4625,-0.0107807
-3.46125,0.0154039
-3.46,0.0281548
-3.45875,0.0348624
-3.4575,0.0439644
-3.45625,0.0810318
-3.455,0.0757129
-3.45375,0.0343737
-3.4525,0.00783847
-3.45125,-0.0156474
-3.45,-0.0280662
-3.44875,-0.0347738
-3.4475,-0.0432022
-3.44625,-0.0785858
-3.445,-0.0766345
-3.44375,-0.0413526
-3.4425,-0.0111129
-3.44125,0.0150671
-3.44,0.0278181
-3.43875,0.0345257
-3.4375,0.0443058
-3.43625,0.0806951
-3.435,0.0760496
-3.43375,0.0347059
-3.4325,0.00783847
-3.43125,-0.0156474
-3.43,-0.0280662
-3.42875,-0.0347738
-3.4275,-0.0428654
-3.42625,-0.078249
-3.425,-0.0769666
-3.42375,-0.0416893
-3.4225,-0.0111129
-3.42125,0.0150671
-3.42,0.0278181
-3.41875,0.0345257
-3.4175,0.043969
-3.41625,0.0803583
-3.415,0.0767232
-3.41375,0.0350473
-3.4125,0.00749709
-3.41125,-0.0156474
-3.41,-0.0280662
-3.40875,-0.0347738
-3.4075,-0.0425287
-3.40625,-0.0785858
-3.405,-0.0776448
-3.40375,-0.0416893
-3.4025,-0.0114496
-3.40125,0.0147304
-3.4,0.0278181
-3.39875,0.0341843
-3.3975,0.0432909
-3.39625,0.0800169
-3.395,0.0767232
-3.39375,0.0347059
-3.3925,0.00783385
-3.39125,-0.0159888
-3.39,-0.0277294
-3.38875,-0.0347738
-3.3875,-0.0428701
-3.38625,-0.078249
-3.385,-0.0773034
-3.38375,-0.0416893
-3.3825,-0.0117864
-3.38125,0.0143936
-3.38,0.0278181
-3.37875,0.0345257
-3.3775,0.0432909
-3.37625,0.0800169
-3.375,0.0770553
-3.37375,0.0353794
-3.3725,0.00850739
-3.37125,-0.0153153
-3.37,-0.0277294
-3.36875,-0.0347738
-3.3675,-0.0428701
-3.36625,-0.078249
-3.365,-0.0779769
-3.36375,-0.0420261
-3.3625,-0.0117864
-3.36125,0.0143936
-3.36,0.0274813
-3.35875,0.0341843
-3.3575,0.0432909
-3.35625,0.0796801
-3.355,0.0777335
-3.35375,0.0353794
-3.3525,0.00817062
-3.35125,-0.015652
-3.35,-0.0277294
-3.34875,-0.0347738
-3.3475,-0.0425333
-3.34625,-0.0779123
-3.345,-0.0779769
-3.34375,-0.0423629
-3.3425,-0.0121232
-3.34125,0.0140568
-3.34,0.0274813
-3.33875,0.0345257
-3.3375,0.0429541
-3.33625,0.0800215
-3.335,0.0777288
-3.33375,0.0357162
-3.3325,0.00850739
-3.33125,-0.0153153
-3.33,-0.0277294
-3.32875,-0.0347738
-3.3275,-0.0421919
-3.32625,-0.0772341
-3.325,-0.0783137
-3.32375,-0.0426996
-3.3225,-0.0121185
-3.32125,0.0140568
-3.32,0.0274813
-3.31875,0.0345257
-3.3175,0.0429541
-3.31625,0.0796848
-3.315,0.0780656
-3.31375,0.0360529
-3.3125,0.00884415
-3.31125,-0.0153153
-3.31,-0.0277294
-3.30875,-0.034437
-3.3075,-0.0418551
-3.30625,-0.0768973
-3.305,-0.0786505
-3.30375,-0.0426996
-3.3025,-0.0124553
-3.30125,0.0140568
-3.3,0.0271445
-3.29875,0.0345257
-3.2975,0.0426173
-3.29625,0.0793434
-3.295,0.0784024
-3.29375,0.0363897
-3.2925,0.00918092
-3.29125,-0.0146417
-3.29,-0.0273927
-3.28875,-0.034437
-3.2875,-0.0421965
-3.28625,-0.0768973
-3.285,-0.0786459
-3.28375,-0.0430364
-3.2825,-0.0127921
-3.28125,0.0137201
-3.28,0.0271445
-3.27875,0.0338475
-3.2775,0.0422806
-3.27625,0.0790066
-3.275,0.0787391
-3.27375,0.0367265
-3.2725,0.00883953
-3.27125,-0.0146417
-3.27,-0.0273927
-3.26875,-0.034437
-3.2675,-0.0421965
-3.26625,-0.076902
-3.265,-0.0786459
-3.26375,-0.0433732
-3.2625,-0.0131288
-3.26125,0.0133833
-3.26,0.0271445
-3.25875,0.0341889
-3.2575,0.0422806
-3.25625,0.0786698
-3.255,0.0787345
-3.25375,0.0370632
-3.2525,0.00951307
-3.25125,-0.0146417
-3.25,-0.0273927
-3.24875,-0.034437
-3.2475,-0.0415184
-3.24625,-0.0765606
-3.245,-0.0793194
-3.24375,-0.0437099
-3.2425,-0.0131288
-3.24125,0.0137247
-3.24,0.0274859
-3.23875,0.0341889
-3.2375,0.0422806
-3.23625,0.0783331
-3.235,0.0790713
-3.23375,0.0370632
-3.2325,0.00951307
-3.23125,-0.0146417
-3.23,-0.0273927
-3.22875,-0.034437
-3.2275,-0.0418598
-3.22625,-0.075887
-3.225,-0.0796562
-3.22375,-0.0437099
-3.2225,-0.0138024
-3.22125,0.0137247
-3.22,0.0268078
-3.21875,0.0338521
-3.2175,0.0419438
-3.21625,0.0783331
-3.215,0.079408
-3.21375,0.0374
-3.2125,0.00951307
-3.21125,-0.0146417
-3.21,-0.0270559
-3.20875,-0.034437
-3.2075,-0.0418598
-3.20625,-0.075887
-3.205,-0.0796562
-3.20375,-0.0443835
-3.2025,-0.013461
-3.20125,0.0133879
-3.2,0.0268078
-3.19875,0.0341889
-3.1975,0.0419438
-3.19625,0.0779963
-3.195,0.079408
-3.19375,0.0374
-3.1925,0.00984521
-3.19125,-0.0139682
-3.19,-0.0270559
-3.18875,-0.034437
-3.1875,-0.0411816
-3.18625,-0.075887
-3.185,-0.0799929
-3.18375,-0.0440421
-3.1825,-0.0137978
-3.18125,0.0133879
-3.18,0.0271492
-3.17875,0.0338521
-3.1775,0.041607
-3.17625,0.0779963
-3.175,0.0797448
-3.17375,0.0373954
-3.1725,0.00984521
-3.17125,-0.0143096
-3.17,-0.0273927
-3.16875,-0.034437
-3.1675,-0.0411816
-3.16625,-0.0755503
-3.165,-0.0803297
-3.16375,-0.0443788
-3.1625,-0.0141345
-3.16125,0.0130512
-3.16,0.0268078
-3.15875,0.0338521
-3.1575,0.0412703
-3.15625,0.0776595
-3.155,0.0797448
-3.15375,0.0377322
-3.1525,0.0101866
-3.15125,-0.0139728
-3.15,-0.0270559
-3.14875,-0.0341003
-3.1475,-0.0408448
-3.14625,-0.0755503
-3.145,-0.0799883
-3.14375,-0.0447156
-3.1425,-0.0137978
-3.14125,0.0130512
-3.14,0.0268124
-3.13875,0.0338521
-3.1375,0.0412703
-3.13625,0.076986
-3.135,0.080077
-3.13375,0.0380689
-3.1325,0.0105187
-3.13125,-0.0139728
-3.13,-0.0270559
-3.12875,-0.0337635
-3.1275,-0.0408448
-3.12625,-0.0755503
-3.125,-0.0803251
-3.12375,-0.0447156
-3.1225,-0.0148081
-3.12125,0.0127144
-3.12,0.0268078
-3.11875,0.0338521
-3.1175,0.0412703
-3.11625,0.0773228
-3.115,0.0804137
-3.11375,0.0380689
-3.1125,0.0105187
-3.11125,-0.0139728
-3.11,-0.0270559
-3.10875,-0.0341049
-3.1075,-0.0408448
-3.10625,-0.0748767
-3.105,-0.0806618
-3.10375,-0.0453891
-3.1025,-0.0148081
-3.10125,0.0127144
-3.1,0.0268078
-3.09875,0.0335154
-3.0975,0.0409335
-3.09625,0.0773228
-3.095,0.0804137
-3.09375,0.0384057
-3.0925,0.0105187
-3.09125,-0.013636
-3.09,-0.0270559
-3.08875,-0.0341049
-3.0875,-0.0405081
-3.08625,-0.0748767
-3.085,-0.0806618
-3.08375,-0.0453891
-3.0825,-0.0151448
-3.08125,0.0123823
-3.08,0.0268078
-3.07875,0.0338521
-3.0775,0.0405967
-3.07625,0.0773228
-3.075,0.0810873
-3.07375,0.0387425
-3.0725,0.0111923
-3.07125,-0.0132993
-3.07,-0.0270559
-3.06875,-0.0341049
-3.0675,-0.0401713
-3.06625,-0.0748767
-3.065,-0.0809986
-3.06375,-0.0457259
-3.0625,-0.0151448
-3.06125,0.0123823
-3.06,0.0268124
-3.05875,0.0338521
-3.0575,0.0405967
-3.05625,0.076986
-3.055,0.0810873
-3.05375,0.0390792
-3.0525,0.0111923
-3.05125,-0.0132993
-3.05,-0.0270559
-3.04875,-0.0337635
-3.0475,-0.0401713
-3.04625,-0.0742032
-3.045,-0.0806572
-3.04375,-0.0457259
-3.0425,-0.0151402
-3.04125,0.0120455
-3.04,0.026471
-3.03875,0.0335154
-3.0375,0.0405967
-3.03625,0.0766446
-3.035,0.0817608
-3.03375,0.039416
-3.0325,0.0111877
-3.03125,-0.0133039
-3.03,-0.0267191
-3.02875,-0.0337681
-3.0275,-0.0401713
-3.02625,-0.0742032
-3.025,-0.080994
-3.02375,-0.0460627
-3.0225,-0.015477
-3.02125,0.0120455
-3.02,0.0268124
-3.01875,0.0338568
-3.0175,0.0405967
-3.01625,0.0766492
-3.015,0.0817608
-3.01375,0.0397528
-3.0125,0.0115244
-3.01125,-0.0129625
-3.01,-0.0267191
-3.00875,-0.0337681
-3.0075,-0.0401713
-3.00625,-0.0738618
-3.005,-0.0813308
-3.00375,-0.0463994
-3.0025,-0.015477
-3.00125,0.0117087
-3,0.0268124
-2.99875,0.03352
-2.9975,0.04026
-2.99625,0.0763125
-2.995,0.0817608
-2.99375,0.0400895
-2.9925,0.0118612
-2.99125,-0.0129671
-2.99,-0.0267191
-2.98875,-0.0337681
-2.9875,-0.0401713
-2.98625,-0.0738664
-2.985,-0.0813308
-2.98375,-0.0467362
-2.9825,-0.0158137
-2.98125,0.0117087
-2.98,0.026471
-2.97875,0.0338568
-2.9775,0.04026
-2.97625,0.0759711
-2.975,0.0820929
-2.97375,0.0404263
-2.9725,0.012198
-2.97125,-0.0126304
-2.97,-0.0267191
-2.96875,-0.0334313
-2.9675,-0.0398345
-2.96625,-0.0731883
-2.965,-0.0816675
-2.96375,-0.0463948
-2.9625,-0.0161505
-2.96125,0.0117087
-2.96,0.0268124
-2.95875,0.0338568
-2.9575,0.04026
-2.95625,0.0759757
-2.955,0.0820929
-2.95375,0.0407631
-2.9525,0.0125347
-2.95125,-0.0126304
-2.95,-0.0263824
-2.94875,-0.0334313
-2.9475,-0.0398345
-2.94625,-0.0731883
-2.945,-0.0816629
-2.94375,-0.0467316
-2.9425,-0.0161459
-2.94125,0.0117133
-2.94,0.0264756
-2.93875,0.03352
-2.9375,0.0399232
-2.93625,0.0756343
-2.935,0.0824297
-2.93375,0.0407631
-2.9325,0.012198
-2.93125,-0.0126304
-2.93,-0.0263824
-2.92875,-0.0334313
-2.9275,-0.0398345
-2.92625,-0.0725148
-2.925,-0.0816629
-2.92375,-0.0470683
-2.9225,-0.0164826
-2.92125,0.0113766
-2.92,0.0264756
-2.91875,0.03352
-2.9175,0.0399232
-2.91625,0.0752975
-2.915,0.0827665
-2.91375,0.0410998
-2.9125,0.0128715
-2.91125,-0.0126304
-2.91,-0.0263824
-2.90875,-0.0334313
-2.9075,-0.0398345
-2.90625,-0.0725148
-2.905,-0.0819997
-2.90375,-0.0474051
-2.9025,-0.0168194
-2.90125,0.0113766
-2.9,0.0264756
-2.89875,0.03352
-2.8975,0.0395864
-2.89625,0.0749608
-2.895,0.0827665
-2.89375,0.0414366
-2.8925,0.0128669
-2.89125,-0.0122936
-2.89,-0.0260456
-2.88875,-0.0330946
-2.8875,-0.0394978
-2.88625,-0.072178
-2.885,-0.0819997
-2.88375,-0.0477419
-2.8825,-0.0168194
-2.88125,0.0110398
-2.88,0.0261389
-2.87875,0.0331832
-2.8775,0.0395864
-2.87625,0.074624
-2.875,0.0827619
-2.87375,0.041432
-2.8725,0.0128669
-2.87125,-0.0119568
-2.87,-0.026387
-2.86875,-0.0330946
-2.8675,-0.0394978
-2.86625,-0.0718412
-2.865,-0.0823364
-2.86375,-0.0480786
-2.8625,-0.0174929
-2.86125,0.010703
-2.86,0.0261389
-2.85875,0.0331832
-2.8575,0.0395864
-2.85625,0.074624
-2.855,0.0830986
-2.85375,0.0417687
-2.8525,0.0132036
-2.85125,-0.0119615
-2.85,-0.0260502
-2.84875,-0.0330946
-2.8475,-0.0394978
-2.84625,-0.0715045
-2.845,-0.0826732
-2.84375,-0.0484154
-2.8425,-0.0174929
-2.84125,0.010703
-2.84,0.0261389
-2.83875,0.0331832
-2.8375,0.0395864
-2.83625,0.0739505
-2.835,0.0830986
-2.83375,0.0421055
-2.8325,0.0135404
-2.83125,-0.0116201
-2.83,-0.0260502
-2.82875,-0.0330946
-2.8275,-0.0394978
-2.82625,-0.0711677
-2.825,-0.0826732
-2.82375,-0.0484154
-2.8225,-0.0174883
-2.82125,0.0103663
-2.82,0.0261389
-2.81875,0.0331832
-2.8175,0.0392497
-2.81625,0.0739505
-2.815,0.0830986
-2.81375,0.0424423
-2.8125,0.0138772
-2.81125,-0.0119615
-2.81,-0.0260502
-2.80875,-0.0327578
-2.8075,-0.039161
-2.80625,-0.0711677
-2.805,-0.08301
-2.80375,-0.0490889
-2.8025,-0.0181665
-2.80125,0.0103663
-2.8,0.0261389
-2.79875,0.0328465
-2.7975,0.0392497
-2.79625,0.0739505
-2.795,0.0834354
-2.79375,0.0424423
-2.7925,0.0138772
-2.79125,-0.0116247
-2.79,-0.0260502
-2.78875,-0.0327578
-2.7875,-0.039161
-2.78625,-0.0708309
-2.785,-0.0826686
-2.78375,-0.0490889
-2.7825,-0.0181619
-2.78125,0.0103709
-2.78,0.0258021
-2.77875,0.0328465
-2.7775,0.0389129
-2.77625,0.0736137
-2.775,0.0837722
-2.77375,0.0431158
-2.7725,0.0142139
-2.77125,-0.0112879
-2.77,-0.0260502
-2.76875,-0.0327578
-2.7675,-0.039161
-2.76625,-0.0708309
-2.765,-0.0826686
-2.76375,-0.0490889
-2.7625,-0.0184986
-2.76125,0.0100341
-2.76,0.0258021
-2.75875,0.0328465
-2.7575,0.0392497
-2.75625,0.0736137
-2.755,0.0837722
-2.75375,0.0431158
-2.7525,0.0145507
-2.75125,-0.0112879
-2.75,-0.0257088
-2.74875,-0.0327578
-2.7475,-0.0388242
-2.74625,-0.0704942
-2.745,-0.0830053
-2.74375,-0.0494211
-2.7425,-0.0188354
-2.74125,0.0100341
-2.74,0.0258021
-2.73875,0.0331879
-2.7375,0.0389129
-2.73625,0.0732769
-2.735,0.0841089
-2.73375,0.0434526
-2.7325,0.0145461
-2.73125,-0.0109512
-2.73,-0.0260502
-2.72875,-0.0330992
-2.7275,-0.039161
-2.72625,-0.0701574
-2.725,-0.0830053
-2.72375,-0.0497625
-2.7225,-0.0191722
-2.72125,0.00969736
-2.72,0.0258021
-2.71875,0.0328465
-2.7175,0.0389129
-2.71625,0.0729402
-2.715,0.0841043
-2.71375,0.0437893
-2.7125,0.0145461
-2.71125,-0.0109512
-2.71,-0.0260502
-2.70875,-0.0327624
-2.7075,-0.0388242
-2.70625,-0.0701574
-2.705,-0.0833421
-2.70375,-0.0497579
-2.7025,-0.0195089
-2.70125,0.00969736
-2.7,0.0254653
-2.69875,0.0328511
-2.6975,0.0382347
-2.69625,0.0726034
-2.695,0.0841043
-2.69375,0.0441261
-2.6925,0.0148828
-2.69125,-0.0109558
-2.69,-0.0257134
-2.68875,-0.0327578
-2.6875,-0.0388242
-2.68625,-0.0698206
-2.685,-0.0836789
-2.68375,-0.0500946
-2.6825,-0.0198457
-2.68125,0.00936059
-2.68,0.0254653
-2.67875,0.0328511
-2.6775,0.0382394
-2.67625,0.0726034
-2.675,0.0847778
-2.67375,0.0444629
-2.6725,0.0148828
-2.67125,-0.0102776
-2.67,-0.0257134
-2.66875,-0.0327624
-2.6675,-0.0388242
-2.66625,-0.0694839
-2.665,-0.0836789
-2.66375,-0.0500946
-2.6625,-0.0195043
-2.66125,0.00902383
-2.66,0.0254653
-2.65875,0.0328511
-2.6575,0.0385761
-2.65625,0.0719299
-2.655,0.0847778
-2.65375,0.0444582
-2.6525,0.0152196
-2.65125,-0.0102822
-2.65,-0.0257134
-2.64875,-0.0327624
-2.6475,-0.0384875
-2.64625,-0.0691425
-2.645,-0.0836743
-2.64375,-0.0504314
-2.6425,-0.0195043
-2.64125,0.00936521
-2.64,0.0258067
-2.63875,0.0328511
-2.6375,0.0385761
-2.63625,0.0715931
-2.635,0.0847778
-2.63375,0.044795
-2.6325,0.0158931
-2.63125,-0.00960409
-2.63,-0.0253767
-2.62875,-0.0324257
-2.6275,-0.0388242
-2.62625,-0.0684689
-2.625,-0.084011
-2.62375,-0.0507682
-2.6225,-0.0201778
-2.62125,0.00868706
-2.62,0.0254699
-2.61875,0.0328511
-2.6175,0.0382347
-2.61625,0.0715931
-2.615,0.0851146
-2.61375,0.0451318
-2.6125,0.0155518
-2.61125,-0.0102822
-2.61,-0.0253813
-2.60875,-0.0324257
-2.6075,-0.0384875
-2.60625,-0.0684689
-2.605,-0.084011
-2.60375,-0.0511049
-2.6025,-0.0205146
-2.60125,0.00868706
-2.6,0.0254699
-2.59875,0.0328511
-2.5975,0.0382347
-2.59625,0.0712563
-2.595,0.08511
-2.59375,0.0454685
-2.5925,0.0158885
-2.59125,-0.00960871
-2.59,-0.0250399
-2.58875,-0.0324257
-2.5875,-0.0384875
-2.58625,-0.0684736
-2.585,-0.084011
-2.58375,-0.0514417
-2.5825,-0.0208514
-2.58125,0.00869168
-2.58,0.0254699
-2.57875,0.0328511
-2.5775,0.037898
-2.57625,0.070915
-2.575,0.08511
-2.57375,0.0458053
-2.5725,0.0162253
-2.57125,-0.00960871
-2.57,-0.0250399
-2.56875,-0.0324257
-2.5675,-0.0384875
-2.56625,-0.0677954
-2.565,-0.0843478
-2.56375,-0.0517785
-2.5625,-0.0215249
-2.56125,0.00835491
-2.56,0.0251332
-2.55875,0.0325143
-2.5575,0.0382347
-2.55625,0.0705782
-2.555,0.0854467
-2.55375,0.0461421
-2.5525,0.0162253
-2.55125,-0.00960871
-2.55,-0.0253813
-2.54875,-0.0324257
-2.5475,-0.0381461
-2.54625,-0.0674586
-2.545,-0.0843478
-2.54375,-0.0521152
-2.5425,-0.0211881
-2.54125,0.00835491
-2.54,0.0251332
-2.53875,0.0325143
-2.5375,0.037898
-2.53625,0.0699047
-2.535,0.0857835
-2.53375,0.0464788
-2.5325,0.0165621
-2.53125,-0.00960871
-2.53,-0.0253813
-2.52875,-0.0320889
-2.5275,-0.0384828
-2.52625,-0.0671219
-2.525,-0.0846846
-2.52375,-0.0517738
-2.5225,-0.0215249
-2.52125,0.00801815
-2.52,0.0247964
-2.51875,0.0325143
-2.5175,0.037898
-2.51625,0.0699047
-2.515,0.0857835
-2.51375,0.0464788
-2.5125,0.0168988
-2.51125,-0.00927194
-2.51,-0.0250445
-2.50875,-0.0324257
-2.5075,-0.0384875
-2.50625,-0.0671265
-2.505,-0.0843432
-2.50375,-0.0524474
-2.5025,-0.0215203
-2.50125,0.00768138
-2.5,0.0247964
-2.49875,0.0325143
-2.4975,0.037898
-2.49625,0.0695679
-2.495,0.0861203
-2.49375,0.0468156
-2.4925,0.0172356
-2.49125,-0.00927656
-2.49,-0.0250445
-2.48875,-0.0324257
-2.4875,-0.0381461
-2.48625,-0.0664483
-2.485,-0.0843432
-2.48375,-0.0524474
-2.4825,-0.0218571
-2.48125,0.00768138
-2.48,0.0247964
-2.47875,0.0325143
-2.4775,0.0375612
-2.47625,0.0692311
-2.475,0.0857789
-2.47375,0.0474891
-2.4725,0.0172356
-2.47125,-0.00893979
-2.47,-0.0250445
-2.46875,-0.0320889
-2.4675,-0.0381461
-2.46625,-0.0664483
-2.465,-0.0846799
-2.46375,-0.0527841
-2.4625,-0.0218571
-2.46125,0.00734461
-2.46,0.0244596
-2.45875,0.0325143
-2.4575,0.037898
-2.45625,0.0688944
-2.455,0.0857789
-2.45375,0.0474845
-2.4525,0.017231
-2.45125,-0.00893979
-2.45,-0.0250445
-2.44875,-0.0320889
-2.4475,-0.0381461
-2.44625,-0.0661162
-2.445,-0.0850167
-2.44375,-0.0531209
-2.4425,-0.0221938
-2.44125,0.00700785
-2.44,0.0244596
-2.43875,0.0321776
-2.4375,0.0375612
-2.43625,0.0688944
-2.435,0.0861157
-2.43375,0.0478213
-2.4325,0.0175677
-2.43125,-0.00893979
-2.43,-0.0250445
-2.42875,-0.0320889
-2.4275,-0.0384828
-2.42625,-0.0657794
-2.425,-0.0850167
-2.42375,-0.0534577
-2.4225,-0.0225306
-2.42125,0.00700785
-2.42,0.0244596
-2.41875,0.0321776
-2.4175,0.0375612
-2.41625,0.0682208
-2.415,0.0861157
-2.41375,0.0478213
-2.4125,0.0175677
-2.41125,-0.00860303
-2.41,-0.0247078
-2.40875,-0.0317521
-2.4075,-0.0381461
-2.40625,-0.0651013
-2.405,-0.0850167
-2.40375,-0.0537944
-2.4025,-0.0228674
-2.40125,0.00667108
-2.4,0.0241229
-2.39875,0.0321776
-2.3975,0.0375612
-2.39625,0.0678841
-2.395,0.0864524
-2.39375,0.0484948
-2.3925,0.0179045
-2.39125,-0.00826626
-2.39,-0.0247078
-2.38875,-0.0317521
-2.3875,-0.0381461
-2.38625,-0.0647645
-2.385,-0.0850167
-2.38375,-0.0541312
-2.3825,-0.0228674
-2.38125,0.00667108
-2.38,0.0241229
-2.37875,0.0321776
-2.3775,0.0375612
-2.37625,0.0675473
-2.375,0.0867892
-2.37375,0.0484948
-2.3725,0.0182413
-2.37125,-0.00826626
-2.37,-0.024371
-2.36875,-0.0317521
-2.3675,-0.0381461
-2.36625,-0.0651059
-2.365,-0.0853535
-2.36375,-0.0541312
-2.3625,-0.0232041
-2.36125,0.0066757
-2.36,0.0241229
-2.35875,0.0321776
-2.3575,0.0375612
-2.35625,0.0675473
-2.355,0.0864478
-2.35375,0.0491684
-2.3525,0.0182367
-2.35125,-0.00792949
-2.35,-0.0247124
-2.34875,-0.0317521
-2.3475,-0.0378093
-2.34625,-0.0647691
-2.345,-0.0853535
-2.34375,-0.0548047
-2.3425,-0.0232041
-2.34125,0.00633894
-2.34,0.0241229
-2.33875,0.0318408
-2.3375,0.0375612
-2.33625,0.0672105
-2.335,0.0867892
-2.33375,0.0495051
-2.3325,0.0189148
-2.33125,-0.00793411
-2.33,-0.0240342
-2.32875,-0.0320935
-2.3275,-0.0381461
-2.32625,-0.0640956
-2.325,-0.0856902
-2.32375,-0.0544633
-2.3225,-0.0235363
-2.32125,0.00633894
-2.32,0.0241275
-2.31875,0.0321776
-2.3175,0.0375612
-2.31625,0.0668738
-2.315,0.0867892
-2.31375,0.0498419
-2.3125,0.018578
-2.31125,-0.00793411
-2.31,-0.0240342
-2.30875,-0.0317521
-2.3075,-0.0378093
-2.30625,-0.0634174
-2.305,-0.0853489
-2.30375,-0.0548001
-2.3025,-0.023873
-2.30125,0.0056654
-2.3,0.0241275
-2.29875,0.0318408
-2.2975,0.0375612
-2.29625,0.066537
-2.295,0.0867846
-2.29375,0.0498373
-2.2925,0.0189102
-2.29125,-0.00759735
-2.29,-0.0240388
-2.28875,-0.0317521
-2.2875,-0.0381461
-2.28625,-0.0634174
-2.285,-0.0856856
-2.28375,-0.0551369
-2.2825,-0.023873
-2.28125,0.0056654
-2.28,0.0237907
-2.27875,0.0321822
-2.2775,0.0375612
-2.27625,0.0662002
-2.275,0.0867846
-2.27375,0.050174
-2.2725,0.0189102
-2.27125,-0.00725596
-2.27,-0.0236975
-2.26875,-0.0317521
-2.2675,-0.0378093
-2.26625,-0.0627439
-2.265,-0.0856856
-2.26375,-0.0554736
-2.2625,-0.0242098
-2.26125,0.00532864
-2.26,0.0237907
-2.25875,0.0318408
-2.2575,0.0375612
-2.25625,0.0655267
-2.255,0.0867846
-2.25375,0.0505108
-2.2525,0.0189102
-2.25125,-0.00726058
-2.25,-0.0240388
-2.24875,-0.0314154
-2.2475,-0.0381461
-2.24625,-0.0627439
-2.245,-0.0856856
-2.24375,-0.0561472
-2.2425,-0.0245466
-2.24125,0.00532864
-2.24,0.023454
-2.23875,0.0318408
-2.2375,0.0372198
-2.23625,0.0651899
-2.235,0.0871213
-2.23375,0.0508476
-2.2325,0.019247
-2.23125,-0.00692381
-2.23,-0.0240388
-2.22875,-0.0317568
-2.2275,-0.0381461
-2.22625,-0.0624071
-2.225,-0.0856856
-2.22375,-0.0561472
-2.2225,-0.0248833
-2.22125,0.00533326
-2.22,0.023454
-2.21875,0.0318454
-2.2175,0.0372198
-2.21625,0.0651899
-2.215,0.0871213
-2.21375,0.0515211
-2.2125,0.019247
-2.21125,-0.00692381
-2.21,-0.0240388
-2.20875,-0.0317568
-2.2075,-0.0378093
-2.20625,-0.0617336
-2.205,-0.0856856
-2.20375,-0.0564839
-2.2025,-0.0252201
-2.20125,0.0046551
-2.2,0.023454
-2.19875,0.0315086
-2.1975,0.0372198
-2.19625,0.0651899
-2.195,0.0871213
-2.19375,0.0515211
-2.1925,0.0199205
-2.19125,-0.00658705
-2.19,-0.0237021
-2.18875,-0.0317568
-2.1875,-0.0378093
-2.18625,-0.0617336
-2.185,-0.0853489
-2.18375,-0.0564793
-2.1825,-0.0252155
-2.18125,0.00499649
-2.18,0.023454
-2.17875,0.0315086
-2.1775,0.0372198
-2.17625,0.0641796
-2.175,0.0867846
-2.17375,0.0525314
-2.1725,0.0199205
-2.17125,-0.00658705
-2.17,-0.0233653
-2.16875,-0.03142
-2.1675,-0.0378093
-2.16625,-0.0613968
-2.165,-0.0850075
-2.16375,-0.0564793
-2.1625,-0.0252155
-2.16125,0.00465972
-2.16,0.0234586
-2.15875,0.0315086
-2.1575,0.0372198
-2.15625,0.0641796
-2.155,0.0867846
-2.15375,0.0525268
-2.1525,0.0202573
-2.15125,-0.00625028
-2.15,-0.0233653
-2.14875,-0.03142
-2.1475,-0.0378093
-2.14625,-0.0610601
-2.145,-0.0853442
-2.14375,-0.0571529
-2.1425,-0.0255522
-2.14125,0.00432296
-2.14,0.0231172
-2.13875,0.0315086
-2.1375,0.0372198
-2.13625,0.0638429
-2.135,0.0871213
-2.13375,0.0532049
-2.1325,0.020594
-2.13125,-0.0062549
-2.13,-0.0233653
-2.12875,-0.03142
-2.1275,-0.0374679
-2.12625,-0.0603865
-2.125,-0.0853442
-2.12375,-0.0574896
-2.1225,-0.025889
-2.12125,0.00432296
-2.12,0.0231218
-2.11875,0.0315086
-2.1175,0.0372198
-2.11625,0.0631693
-2.115,0.0871167
-2.11375,0.0535417
-2.1125,0.020594
-2.11125,-0.0062549
-2.11,-0.0233653
-2.10875,-0.0310832
-2.1075,-0.0374679
-2.10625,-0.0607233
-2.105,-0.085681
-2.10375,-0.0578264
-2.1025,-0.025889
-2.10125,0.00398619
-2.1,0.0231218
-2.09875,0.0315086
-2.0975,0.0372198
-2.09625,0.0631693
-2.095,0.0871167
-2.09375,0.0535371
-2.0925,0.0205894
-2.09125,-0.00591813
-2.09,-0.0230285
-2.08875,-0.0310832
-2.0875,-0.0374679
-2.08625,-0.0600498
-2.085,-0.085681
-2.08375,-0.0581632
-2.0825,-0.0262258
-2.08125,0.00398619
-2.08,0.0227804
-2.07875,0.0315086
-2.0775,0.036883
-2.07625,0.0628326
-2.075,0.0874535
-2.07375,0.0535371
-2.0725,0.0205894
-2.07125,-0.00558137
-2.07,-0.0230285
-2.06875,-0.0310832
-2.0675,-0.0374679
-2.06625,-0.0600498
-2.065,-0.0853442
-2.06375,-0.0581632
-2.0625,-0.0265625
-2.06125,0.00399081
-2.06,0.0231218
-2.05875,0.0315086
-2.0575,0.0372198
-2.05625,0.0624958
-2.055,0.0874535
-2.05375,0.0542106
-2.0525,0.0209262
-2.05125,-0.0052446
-2.05,-0.0230332
-2.04875,-0.0310832
-2.0475,-0.0374679
-2.04625,-0.0600498
-2.045,-0.085681
-2.04375,-0.0588367
-2.0425,-0.0262258
-2.04125,0.00399081
-2.04,0.0227851
-2.03875,0.0311719
-2.0375,0.0372198
-2.03625,0.062159
-2.035,0.0871167
-2.03375,0.0545474
-2.0325,0.0212629
-2.03125,-0.0052446
-2.03,-0.0230332
-2.02875,-0.0310832
-2.0275,-0.0374679
-2.02625,-0.0593762
-2.025,-0.085681
-2.02375,-0.0584953
-2.0225,-0.0268993
-2.02125,0.00365404
-2.02,0.0227851
-2.01875,0.0315086
-2.0175,0.0372198
-2.01625,0.062159
-2.015,0.0871167
-2.01375,0.0548842
-2.0125,0.0212629
-2.01125,-0.0052446
-2.01,-0.0230332
-2.00875,-0.0307465
-2.0075,-0.0374679
-2.00625,-0.0590395
-2.005,-0.085681
-2.00375,-0.0591735
-2.0025,-0.0272361
-2.00125,0.00365404
-2,0.0227851
-1.99875,0.0311719
-1.9975,0.0372198
-1.99625,0.0618223
-1.995,0.0871167
-1.99375,0.0555577
-1.9925,0.0215997
-1.99125,-0.00490783
-1.99,-0.0226964
-1.98875,-0.0307465
-1.9875,-0.0374679
-1.98625,-0.0587027
-1.985,-0.085681
-1.98375,-0.0595056
-1.9825,-0.0275728
-1.98125,0.00331728
-1.98,0.0224483
-1.97875,0.0308351
-1.9775,0.0372198
-1.97625,0.0614855
-1.975,0.0871167
-1.97375,0.0555531
-1.9725,0.0215951
-1.97125,-0.00491245
-1.97,-0.0226964
-1.96875,-0.0307465
-1.9675,-0.0374679
-1.96625,-0.0583659
-1.965,-0.085681
-1.96375,-0.0598424
-1.9625,-0.0279096
-1.96125,0.00298051
-1.96,0.0221115
-1.95875,0.0311719
-1.9575,0.0375566
-1.95625,0.060812
-1.955,0.0867753
-1.95375,0.0558898
-1.9525,0.0219318
-1.95125,-0.00457107
-1.95,-0.0226964
-1.94875,-0.0307465
-1.9475,-0.0378047
-1.94625,-0.0580292
-1.945,-0.0850028
-1.94375,-0.0601791
-1.9425,-0.0275682
-1.94125,0.00298051
-1.94,0.0221115
-1.93875,0.0308351
-1.9375,0.0375566
-1.93625,0.0604752
-1.935,0.0871121
-1.93375,0.0562266
-1.9325,0.02261
-1.93125,-0.00457569
-1.93,-0.0223596
-1.92875,-0.0307511
-1.9275,-0.0378047
-1.92625,-0.0580292
-1.925,-0.0853396
-1.92375,-0.0605159
-1.9225,-0.027905
-1.92125,0.00264374
-1.92,0.0217748
-1.91875,0.0311765
-1.9175,0.0375566
-1.91625,0.0604752
-1.915,0.0871121
-1.91375,0.0565634
-1.9125,0.0222686
-1.91125,-0.00457569
-1.91,-0.0223596
-1.90875,-0.0304097
-1.9075,-0.0374679
-1.90625,-0.0573556
-1.905,-0.0850028
-1.90375,-0.0608527
-1.9025,-0.0282418
-1.90125,0.00264836
-1.9,0.0221115
-1.89875,0.0308397
-1.8975,0.0375566
-1.89625,0.0601384
-1.895,0.0871121
-1.89375,0.0569001
-1.8925,0.0226054
-1.89125,-0.00423892
-1.89,-0.0223596
-1.88875,-0.0304097
-1.8875,-0.0374679
-1.88625,-0.0573556
-1.885,-0.0850028
-1.88375,-0.0611894
-1.8825,-0.0285785
-1.88125,0.00197021
-1.88,0.0217748
-1.87875,0.0304983
-1.8775,0.0368784
-1.87625,0.0598017
-1.875,0.0871121
-1.87375,0.0575737
-1.8725,0.0229421
-1.87125,-0.00390216
-1.87,-0.0223596
-1.86875,-0.0304143
-1.8675,-0.0374679
-1.86625,-0.0570189
-1.865,-0.0853396
-1.86375,-0.0611848
-1.8625,-0.0285785
-1.86125,0.00197483
-1.86,0.0217794
-1.85875,0.0308397
-1.8575,0.0372152
-1.85625,0.0594649
-1.855,0.0867753
-1.85375,0.057569
-1.8525,0.0232789
-1.85125,-0.00356539
-1.85,-0.0220229
-1.84875,-0.0307511
-1.8475,-0.0374679
-1.84625,-0.0563453
-1.845,-0.0853396
-1.84375,-0.0615216
-1.8425,-0.0289153
-1.84125,0.00197483
-1.84,0.0217794
-1.83875,0.0308397
-1.8375,0.0372152
-1.83625,0.0594649
-1.835,0.0867753
-1.83375,0.0582472
-1.8325,0.0232789
-1.83125,-0.00390678
-1.83,-0.0220229
-1.82875,-0.0304143
-1.8275,-0.0378047
-1.82625,-0.0563453
-1.825,-0.0850028
-1.82375,-0.0618584
-1.8225,-0.0289153
-1.82125,0.00163806
-1.82,0.0217794
-1.81875,0.0308397
-1.8175,0.0368784
-1.81625,0.0587914
-1.815,0.0867753
-1.81375,0.0585793
-1.8125,0.0236157
-1.81125,-0.00357001
-1.81,-0.0216861
-1.80875,-0.0300775
-1.8075,-0.0374679
-1.80625,-0.0560086
-1.805,-0.0853396
-1.80375,-0.0621951
-1.8025,-0.0292521
-1.80125,0.00163806
-1.8,0.0217794
-1.79875,0.030503
-1.7975,0.0368784
-1.79625,0.0587914
-1.795,0.0864386
-1.79375,0.0585793
-1.7925,0.0239524
-1.79125,-0.00323324
-1.79,-0.0216861
-1.78875,-0.0304143
-1.7875,-0.0378047
-1.78625,-0.0556718
-1.785,-0.0853396
-1.78375,-0.0625319
-1.7825,-0.0295888
-1.78125,0.0013013
-1.78,0.0217794
-1.77875,0.030503
-1.7775,0.0368784
-1.77625,0.0584546
-1.775,0.0867753
-1.77375,0.0592529
-1.7725,0.0239524
-1.77125,-0.00323324
-1.77,-0.0216907
-1.76875,-0.0300775
-1.7675,-0.0374679
-1.76625,-0.055335
-1.765,-0.0846615
-1.76375,-0.0628687
-1.7625,-0.0295842
-1.76125,0.00130592
-1.76,0.0217794
-1.75875,0.030503
-1.7575,0.0368784
-1.75625,0.0577811
-1.755,0.0867753
-1.75375,0.0595896
-1.7525,0.0242892
-1.75125,-0.00289648
-1.75,-0.0213493
-1.74875,-0.0300775
-1.7475,-0.0371265
-1.74625,-0.055335
-1.745,-0.0846615
-1.74375,-0.0632054
-1.7425,-0.0295842
-1.74125,0.000627764
-1.74,0.0214426
-1.73875,0.030503
-1.7375,0.0368784
-1.73625,0.0581178
-1.735,0.0871121
-1.73375,0.0599264
-1.7325,0.024626
-1.73125,-0.00255971
-1.73,-0.0213493
-1.72875,-0.0300775
-1.7275,-0.0371265
-1.72625,-0.0546615
-1.725,-0.0846615
-1.72375,-0.0632008
-1.7225,-0.029921
-1.72125,0.000969151
-1.72,0.0214426
-1.71875,0.030503
-1.7175,0.0368784
-1.71625,0.0577811
-1.715,0.0864339
-1.71375,0.0602632
-1.7125,0.0242846
-1.71125,-0.00255971
-1.71,-0.021354
-1.70875,-0.0297408
-1.7075,-0.0371265
-1.70625,-0.0546615
-1.705,-0.0843247
-1.70375,-0.0635376
-1.7025,-0.0302577
-1.70125,0.000632384
-1.7,0.0214426
-1.69875,0.030503
-1.6975,0.0368784
-1.69625,0.0574443
-1.695,0.0860972
-1.69375,0.0602586
-1.6925,0.0246214
-1.69125,-0.00222294
-1.69,-0.021354
-1.68875,-0.0297408
-1.6875,-0.0374679
-1.68625,-0.0546615
-1.685,-0.0846615
-1.68375,-0.0635376
-1.6825,-0.0302577
-1.68125,0.000295618
-1.68,0.0211058
-1.67875,0.0301662
-1.6775,0.0368784
-1.67625,0.0571075
-1.675,0.0864339
-1.67375,0.0605953
-1.6725,0.0246214
-1.67125,-0.00222756
-1.67,-0.021354
-1.66875,-0.0297408
-1.6675,-0.0374679
-1.66625,-0.053988
-1.665,-0.0846615
-1.66375,-0.0642111
-1.6625,-0.0309313
-1.66125,-4.11489e-05
-1.66,0.0211058
-1.65875,0.0301662
-1.6575,0.0368784
-1.65625,0.0571075
-1.655,0.0860972
-1.65375,0.0612689
-1.6525,0.0249581
-1.65125,-0.0018908
-1.65,-0.0210172
-1.64875,-0.0297408
-1.6475,-0.0371265
-1.64625,-0.053988
-1.645,-0.0843247
-1.64375,-0.0645479
-1.6425,-0.0309313
-1.64125,-0.000377915
-1.64,0.0207691
-1.63875,0.0298294
-1.6375,0.0368784
-1.63625,0.056434
-1.635,0.0860972
-1.63375,0.0616056
-1.6325,0.0249581
-1.63125,-0.0018908
-1.63,-0.0210172
-1.62875,-0.0297408
-1.6275,-0.0371265
-1.62625,-0.0536512
-1.625,-0.0846615
-1.62375,-0.0645479
-1.6225,-0.0309313
-1.62125,-3.65285e-05
-1.62,0.0207691
-1.61875,0.0298294
-1.6175,0.0368784
-1.61625,0.0560972
-1.615,0.0857604
-1.61375,0.0619424
-1.6125,0.0252949
-1.61125,-0.0018908
-1.61,-0.0210172
-1.60875,-0.0300822
-1.6075,-0.0374679
-1.60625,-0.0533144
-1.605,-0.0843247
-1.60375,-0.0648846
-1.6025,-0.031268
-1.60125,-0.000373295
-1.6,0.0207691
-1.59875,0.0298294
-1.5975,0.0365417
-1.59625,0.0554191
-1.595,0.0860972
-1.59375,0.0619378
-1.5925,0.0252903
-1.59125,-0.00189542
-1.59,-0.0213586
-1.58875,-0.0297454
-1.5875,-0.0371312
-1.58625,-0.0533144
-1.585,-0.0843247
-1.58375,-0.0652214
-1.5825,-0.0316048
-1.58125,-0.00105145
-1.58,0.0204323
-1.57875,0.0298294
-1.5775,0.0365417
-1.57625,0.0554191
-1.575,0.0864339
-1.57375,0.0626113
-1.5725,0.0259684
-1.57125,-0.00122188
-1.57,-0.0210218
-1.56875,-0.0297454
-1.5675,-0.0367898
-1.56625,-0.0533144
-1.565,-0.0843247
-1.56375,-0.0652168
-1.5625,-0.0319416
-1.56125,-0.00104683
-1.56,0.0207737
-1.55875,0.0298294
-1.5575,0.0368784
-1.55625,0.0554237
-1.555,0.0857604
-1.55375,0.0629481
-1.5525,0.0259684
-1.55125,-0.000885117
-1.55,-0.0210218
-1.54875,-0.029404
-1.5475,-0.0367898
-1.54625,-0.0526409
-1.545,-0.0843247
-1.54375,-0.0658903
-1.5425,-0.0319416
-1.54125,-0.00104683
-1.54,0.0204323
-1.53875,0.0298341
-1.5375,0.0365417
-1.53625,0.0550869
-1.535,0.0857604
-1.53375,0.0629481
-1.5325,0.0263052
-1.53125,-0.000885117
-1.53,-0.0210218
-1.52875,-0.029404
-1.5275,-0.0367898
-1.52625,-0.0526409
-1.525,-0.0839879
-1.52375,-0.0658903
-1.5225,-0.0322737
-1.52125,-0.00172036
-1.52,0.0204369
-1.51875,0.0298341
-1.5175,0.0365417
-1.51625,0.0544088
-1.515,0.0857604
-1.51375,0.0632848
-1.5125,0.0263052
-1.51125,-0.00054835
-1.51,-0.0203437
-1.50875,-0.029404
-1.5075,-0.0367898
-1.50625,-0.0523041
-1.505,-0.0836465
-1.50375,-0.0662271
-1.5025,-0.0322737
-1.50125,-0.00137897
-1.5,0.0204369
-1.49875,0.0298341
-1.4975,0.0365417
-1.49625,0.0547502
-1.495,0.0857604
-1.49375,0.0639584
-1.4925,0.026642
-1.49125,-0.00054835
-1.49,-0.0203437
-1.48875,-0.0294086
-1.4875,-0.036453
-1.48625,-0.0519674
-1.485,-0.0836465
-1.48375,-0.0669006
-1.4825,-0.0326105
-1.48125,-0.00137897
-1.48,0.0204369
-1.47875,0.0298341
-1.4775,0.0365417
-1.47625,0.0544134
-1.475,0.0857604
-1.47375,0.0642951
-1.4725,0.026642
-1.47125,-0.000211583
-1.47,-0.0203483
-1.46875,-0.0294086
-1.4675,-0.0367898
-1.46625,-0.0519674
-1.465,-0.0836465
-1.46375,-0.066896
-1.4625,-0.0329472
-1.46125,-0.00171574
-1.46,0.0201002
-1.45875,0.0298341
-1.4575,0.0365417
-1.45625,0.0533985
-1.455,0.0850823
-1.45375,0.0646319
-1.4525,0.0266373
-1.45125,0.000125183
-1.45,-0.0203483
-1.44875,-0.0294086
-1.4475,-0.036453
-1.44625,-0.0516306
-1.445,-0.0836465
-1.44375,-0.0672328
-1.4425,-0.0329472
-1.44125,-0.00205251
-1.44,0.0197634
-1.43875,0.0294973
-1.4375,0.0365417
-1.43625,0.0533985
-1.435,0.0850823
-1.43375,0.0646273
-1.4325,0.0269741
-1.43125,-0.000216204
-1.43,-0.0203483
-1.42875,-0.0294086
-1.4275,-0.0367898
-1.42625,-0.0512938
-1.425,-0.0836512
-1.42375,-0.0675695
-1.4225,-0.033284
-1.42125,-0.00238927
-1.42,0.0197634
-1.41875,0.0298341
-1.4175,0.0362003
-1.41625,0.0530617
-1.415,0.0850823
-1.41375,0.064964
-1.4125,0.0273109
-1.41125,0.000457329
-1.41,-0.0200115
-1.40875,-0.0294086
-1.4075,-0.036453
-1.40625,-0.0512938
-1.405,-0.0833098
-1.40375,-0.0679063
-1.4025,-0.0336208
-1.40125,-0.00272604
-1.4,0.0194266
-1.39875,0.0294973
-1.3975,0.0362049
-1.39625,0.0527249
-1.395,0.0850823
-1.39375,0.0653008
-1.3925,0.0276476
-1.39125,0.000457329
-1.39,-0.0200115
-1.38875,-0.0294086
-1.3875,-0.036453
-1.38625,-0.0509571
-1.385,-0.082973
-1.38375,-0.0682431
-1.3825,-0.0339575
-1.38125,-0.00272604
-1.38,0.0194266
-1.37875,0.0294973
-1.3775,0.0362049
-1.37625,0.0527249
-1.375,0.0850823
-1.37375,0.0659743
-1.3725,0.0276476
-1.37125,0.000794096
-1.37,-0.0200115
-1.36875,-0.0294086
-1.3675,-0.036453
-1.36625,-0.0506203
-1.365,-0.082973
-1.36375,-0.0685798
-1.3625,-0.0342943
-1.36125,-0.00339957
-1.36,0.0194312
-1.35875,0.0294973
-1.3575,0.0362049
-1.35625,0.0523882
-1.355,0.0850823
-1.35375,0.0659743
-1.3525,0.0276476
-1.35125,0.000794096
-1.35,-0.0200115
-1.34875,-0.0294086
-1.3475,-0.036453
-1.34625,-0.0506203
-1.345,-0.082973
-1.34375,-0.0682384
-1.3425,-0.0342943
-1.34125,-0.00305819
-1.34,0.0190899
-1.33875,0.0294973
-1.3375,0.0362049
-1.33625,0.0520514
-1.335,0.0847455
-1.33375,0.0663065
-1.3325,0.0279844
-1.33125,0.00113086
-1.33,-0.0196747
-1.32875,-0.0290719
-1.3275,-0.036453
-1.32625,-0.0502835
-1.325,-0.082973
-1.32375,-0.0685752
-1.3225,-0.0342943
-1.32125,-0.00339495
-1.32,0.0190945
-1.31875,0.0294973
-1.3175,0.0358635
-1.31625,0.0517146
-1.315,0.0847455
-1.31375,0.0666433
-1.3125,0.0283212
-1.31125,0.00112624
-1.31,-0.0196747
-1.30875,-0.0290719
-1.3075,-0.036453
-1.30625,-0.0499468
-1.305,-0.082973
-1.30375,-0.0692487
-1.3025,-0.0346311
-1.30125,-0.00373172
-1.3,0.0190945
-1.29875,0.0291605
-1.2975,0.0358635
-1.29625,0.0517146
-1.295,0.0847455
-1.29375,0.06698
-1.2925,0.0286579
-1.29125,0.00146301
-1.29,-0.0196794
-1.28875,-0.0290719
-1.2875,-0.036453
-1.28625,-0.04961
-1.285,-0.0826362
-1.28375,-0.0692487
-1.2825,-0.0349678
-1.28125,-0.00406849
-1.28,0.0190945
-1.27875,0.0291605
-1.2775,0.0358681
-1.27625,0.0513779
-1.275,0.0847455
-1.27375,0.0673168
-1.2725,0.0286579
-1.27125,0.00146301
-1.27,-0.0196794
-1.26875,-0.0290719
-1.2675,-0.036453
-1.26625,-0.04961
-1.265,-0.0826362
-1.26375,-0.0695855
-1.2625,-0.0349678
-1.26125,-0.00440525
-1.26,0.0190945
-1.25875,0.0294973
-1.2575,0.0358635
-1.25625,0.0510411
-1.255,0.0844087
-1.25375,0.0676536
-1.2525,0.0286533
-1.25125,0.00179978
-1.25,-0.0196794
-1.24875,-0.0290719
-1.2475,-0.0361162
-1.24625,-0.0492732
-1.245,-0.0826362
-1.24375,-0.0699223
-1.2425,-0.0353046
-1.24125,-0.00440525
-1.24,0.0190945
-1.23875,0.0291605
-1.2375,0.0358681
-1.23625,0.0507043
-1.235,0.0844087
-1.23375,0.0679903
-1.2325,0.0289947
-1.23125,0.00213654
-1.23,-0.0193426
-1.22875,-0.0290719
-1.2275,-0.036453
-1.22625,-0.0489365
-1.225,-0.0822995
-1.22375,-0.0699177
-1.2225,-0.0353
-1.22125,-0.00440063
-1.22,0.0187577
-1.21875,0.0291605
-1.2175,0.0358681
-1.21625,0.0507043
-1.215,0.0844087
-1.21375,0.0683271
-1.2125,0.0293315
-1.21125,0.00213654
-1.21,-0.0193426
-1.20875,-0.0287351
-1.2075,-0.0361162
-1.20625,-0.0489365
-1.205,-0.0819581
-1.20375,-0.0702544
-1.2025,-0.0356368
-1.20125,-0.0047374
-1.2,0.0187577
-1.19875,0.0291605
-1.1975,0.0358681
-1.19625,0.0503676
-1.195,0.084072
-1.19375,0.0686592
-1.1925,0.0293269
-1.19125,0.00247331
-1.19,-0.0190058
-1.18875,-0.0287351
-1.1875,-0.0361162
-1.18625,-0.0485997
-1.185,-0.0822995
-1.18375,-0.0705912
-1.1825,-0.0359735
-1.18125,-0.00507417
-1.18,0.018421
-1.17875,0.0291605
-1.1775,0.0358681
-1.17625,0.0503676
-1.175,0.084072
-1.17375,0.068996
-1.1725,0.0293269
-1.17125,0.00281008
-1.17,-0.0190058
-1.16875,-0.0287351
-1.1675,-0.0361162
-1.16625,-0.0479216
-1.165,-0.0816213
-1.16375,-0.070928
-1.1625,-0.0359735
-1.16125,-0.00541093
-1.16,0.0184256
-1.15875,0.0291605
-1.1575,0.0358681
-1.15625,0.0500308
-1.155,0.084072
-1.15375,0.0693328
-1.1525,0.0296636
-1.15125,0.00280546
-1.15,-0.0186691
-1.14875,-0.0287351
-1.1475,-0.0357795
-1.14625,-0.0482629
-1.145,-0.0819581
-1.14375,-0.0712647
-1.1425,-0.0359735
-1.14125,-0.0057477
-1.14,0.0180842
-1.13875,0.0288238
-1.1375,0.0355267
-1.13625,0.049694
-1.135,0.0837306
-1.13375,0.0696695
-1.1325,0.0300004
-1.13125,0.00314222
-1.13,-0.0186691
-1.12875,-0.0290719
-1.1275,-0.0361162
-1.12625,-0.0479262
-1.125,-0.0816213
-1.12375,-0.0716015
-1.1225,-0.0363103
-1.12125,-0.0057477
-1.12,0.0184256
-1.11875,0.0288238
-1.1175,0.0358681
-1.11625,0.049694
-1.115,0.0837306
-1.11375,0.0700063
-1.1125,0.0300004
-1.11125,0.00347899
-1.11,-0.0183323
-1.10875,-0.0287351
-1.1075,-0.0357795
-1.10625,-0.0475848
-1.105,-0.0816213
-1.10375,-0.0715969
-1.1025,-0.0366471
-1.10125,-0.00574308
-1.1,0.0180888
-1.09875,0.0288238
-1.0975,0.0355314
-1.09625,0.0490205
-1.095,0.0837306
-1.09375,0.0703385
-1.0925,0.0303372
-1.09125,0.00347899
-1.09,-0.0183323
-1.08875,-0.0287351
-1.0875,-0.0357795
-1.08625,-0.047248
-1.085,-0.0812845
-1.08375,-0.0715969
-1.0825,-0.0366471
-1.08125,-0.00607985
-1.08,0.0180888
-1.07875,0.0288238
-1.0775,0.0358681
-1.07625,0.0490205
-1.075,0.0833938
-1.07375,0.0706752
-1.0725,0.0306739
-1.07125,0.00347437
-1.07,-0.0183323
-1.06875,-0.0287351
-1.0675,-0.0357795
-1.06625,-0.0469113
-1.065,-0.0812845
-1.06375,-0.0719336
-1.0625,-0.0369838
-1.06125,-0.00641661
-1.06,0.0177474
-1.05875,0.0288238
-1.0575,0.0355314
-1.05625,0.0486837
-1.055,0.0833938
-1.05375,0.071012
-1.0525,0.0306739
-1.05125,0.00347437
-1.05,-0.0183369
-1.04875,-0.0283983
-1.0475,-0.0357795
-1.04625,-0.0469113
-1.045,-0.0812845
-1.04375,-0.0722704
-1.0425,-0.0373206
-1.04125,-0.00675338
-1.04,0.017752
-1.03875,0.0288238
-1.0375,0.0355314
-1.03625,0.048347
-1.035,0.0833938
-1.03375,0.0713488
-1.0325,0.0310107
-1.03125,0.00381113
-1.03,-0.0183369
-1.02875,-0.0283983
-1.0275,-0.0357795
-1.02625,-0.0465745
-1.025,-0.0809478
-1.02375,-0.0726072
-1.0225,-0.0373206
-1.02125,-0.00675338
-1.02,0.017752
-1.01875,0.0288284
-1.0175,0.0355314
-1.01625,0.0480102
-1.015,0.083057
-1.01375,0.0716855
-1.0125,0.0310107
-1.01125,0.0041479
-1.01,-0.0180001
-1.00875,-0.0283983
-1.0075,-0.0354427
-1.00625,-0.0465791
-1.005,-0.0809478
-1.00375,-0.0729439
-1.0025,-0.0376574
-1.00125,-0.00674876
-1,0.0174153
-0.99875,0.0288284
-0.9975,0.0355314
-0.99625,0.0480102
-0.995,0.083057
-0.99375,0.0716855
-0.9925,0.0313475
-0.99125,0.00482143
-0.99,-0.0180001
-0.98875,-0.0283983
-0.9875,-0.0354427
-0.98625,-0.0462377
-0.985,-0.0809478
-0.98375,-0.0729393
-0.9825,-0.0379941
-0.98125,-0.00708553
-0.98,0.0174153
-0.97875,0.0288284
-0.9775,0.0355314
-0.97625,0.0480102
-0.975,0.083057
-0.97375,0.0723591
-0.9725,0.0316842
-0.97125,0.00448467
-0.97,-0.0180001
-0.96875,-0.0283983
-0.9675,-0.0354427
-0.96625,-0.045901
-0.965,-0.0809478
-0.96375,-0.0732761
-0.9625,-0.0376527
-0.96125,-0.00708553
-0.96,0.0170785
-0.95875,0.0288284
-0.9575,0.0355314
-0.95625,0.0476734
-0.955,0.0827203
-0.95375,0.0723544
-0.9525,0.0316842
-0.95125,0.00481681
-0.95,-0.0176634
-0.94875,-0.028403
-0.9475,-0.0354427
-0.94625,-0.045901
-0.945,-0.0809478
-0.94375,-0.0736128
-0.9425,-0.0379895
-0.94125,-0.00775906
-0.94,0.0170785
-0.93875,0.0284916
-0.9375,0.0351946
-0.93625,0.0473367
-0.935,0.0827203
-0.93375,0.0723544
-0.9325,0.0316796
-0.93125,0.00515358
-0.93,-0.0176634
-0.92875,-0.028403
-0.9275,-0.0354427
-0.92625,-0.0459056
-0.925,-0.0799375
-0.92375,-0.0736128
-0.9225,-0.038663
-0.92125,-0.00775906
-0.92,0.0167417
-0.91875,0.0284916
-0.9175,0.0351946
-0.91625,0.0469953
-0.915,0.0820467
-0.91375,0.073028
-0.9125,0.0320164
-0.91125,0.00515358
-0.91,-0.0173266
-0.90875,-0.028403
-0.9075,-0.0351059
-0.90625,-0.0455642
-0.905,-0.0799375
-0.90375,-0.0742864
-0.9025,-0.0389998
-0.90125,-0.00809121
-0.9,0.0167417
-0.89875,0.0284916
-0.8975,0.0351946
-0.89625,0.0469999
-0.895,0.0820467
-0.89375,0.0733647
-0.8925,0.0323531
-0.89125,0.00549035
-0.89,-0.0169898
-0.88875,-0.0280662
-0.8875,-0.0351059
-0.88625,-0.0452274
-0.885,-0.0799375
-0.88375,-0.0746231
-0.8825,-0.0389998
-0.88125,-0.00809121
-0.88,0.0167464
-0.87875,0.0284916
-0.8775,0.0348578
-0.87625,0.0466631
-0.875,0.0820467
-0.87375,0.0737015
-0.8725,0.0323531
-0.87125,0.00582711
-0.87,-0.0169898
-0.86875,-0.0277248
-0.8675,-0.0351059
-0.86625,-0.0452274
-0.865,-0.0799375
-0.86375,-0.0746185
-0.8625,-0.0393366
-0.86125,-0.00876474
-0.86,0.0164096
-0.85875,0.0284916
-0.8575,0.0351946
-0.85625,0.0466631
-0.855,0.0823835
-0.85375,0.0740383
-0.8525,0.0326899
-0.85125,0.00548573
-0.85,-0.0169898
-0.84875,-0.0280662
-0.8475,-0.0351059
-0.84625,-0.0448907
-0.845,-0.0795961
-0.84375,-0.0746185
-0.8425,-0.0393366
-0.84125,-0.00876474
-0.84,0.0164096
-0.83875,0.0284916
-0.8375,0.0351946
-0.83625,0.0463264
-0.835,0.0820467
-0.83375,0.0740336
-0.8325,0.0326899
-0.83125,0.00582711
-0.83,-0.0169898
-0.82875,-0.0280662
-0.8275,-0.0351059
-0.82625,-0.0445539
-0.825,-0.0796007
-0.82375,-0.0752921
-0.8225,-0.0396733
-0.82125,-0.0091015
-0.82,0.0164096
-0.81875,0.0281548
-0.8175,0.0348578
-0.81625,0.045985
-0.815,0.0817054
-0.81375,0.0747072
-0.8125,0.0330267
-0.81125,0.00615926
-0.81,-0.0166531
-0.80875,-0.0280662
-0.8075,-0.0351059
-0.80625,-0.0445539
-0.805,-0.0796007
-0.80375,-0.0756288
-0.8025,-0.0400101
-0.80125,-0.00943827
-0.8,0.0160728
-0.79875,0.0281548
-0.7975,0.0348578
-0.79625,0.0459896
-0.795,0.0813686
-0.79375,0.0747072
-0.7925,0.0333634
-0.79125,0.00615926
-0.79,-0.0166577
-0.78875,-0.0280662
-0.7875,-0.0351059
-0.78625,-0.0445539
-0.785,-0.0792593
-0.78375,-0.0756288
-0.7825,-0.0400101
-0.78125,-0.00943827
-0.78,0.0160728
-0.77875,0.0281548
-0.7775,0.0348578
-0.77625,0.0456528
-0.775,0.0810318
-0.77375,0.0750439
-0.7725,0.0337002
-0.77125,0.00649603
-0.77,-0.0166577
-0.76875,-0.0280662
-0.7675,-0.0354473
-0.76625,-0.0438804
-0.765,-0.0789226
-0.76375,-0.0756242
-0.7625,-0.0400101
-0.76125,-0.00977504
-0.76,0.0157361
-0.75875,0.0281548
-0.7575,0.0348578
-0.75625,0.0453115
-0.755,0.0810318
-0.75375,0.0757175
-0.7525,0.034037
-0.75125,0.00649603
-0.75,-0.0163209
-0.74875,-0.0277294
-0.7475,-0.0351059
-0.74625,-0.0438804
-0.745,-0.0785858
-0.74375,-0.075961
-0.7425,-0.0403469
-0.74125,-0.00943365
-0.74,0.0157361
-0.73875,0.0281548
-0.7375,0.0348578
-0.73625,0.0453161
-0.735,0.0810318
-0.73375,0.0760542
-0.7325,0.034037
-0.73125,0.00716956
-0.73,-0.0163209
-0.72875,-0.0277294
-0.7275,-0.0351059
-0.72625,-0.0438804
-0.725,-0.0785858
-0.72375,-0.0762977
-0.7225,-0.0406836
-0.72125,-0.0101072
-0.72,0.0153993
-0.71875,0.0281548
-0.7175,0.0348578
-0.71625,0.0446379
-0.715,0.0810318
-0.71375,0.0757129
-0.7125,0.0343737
-0.71125,0.00716956
-0.71,-0.0163209
-0.70875,-0.0277294
-0.7075,-0.0347692
-0.70625,-0.0435436
-0.705,-0.0785858
-0.70375,-0.0766345
-0.7025,-0.040679
-0.70125,-0.0101072
-0.7,0.0153993
-0.69875,0.0281548
-0.6975,0.0348578
-0.69625,0.0446379
-0.695,0.0806951
-0.69375,0.0760496
-0.6925,0.0343691
-0.69125,0.00716494
-0.69,-0.0159842
-0.68875,-0.0277294
-0.6875,-0.0351106
-0.68625,-0.0435436
-0.685,-0.078249
-0.68375,-0.0769713
-0.6825,-0.0413572
-0.68125,-0.010444
-0.68,0.0150625
-0.67875,0.0278181
-0.6775,0.0348578
-0.67625,0.0443012
-0.675,0.0806951
-0.67375,0.0767232
-0.6725,0.0343691
-0.67125,0.00716494
-0.67,-0.0159842
-0.66875,-0.0277294
-0.6675,-0.0351106
-0.66625,-0.0432068
-0.665,-0.078249
-0.66375,-0.077308
-0.6625,-0.0410158
-0.66125,-0.0111175
-0.66,0.0154039
-0.65875,0.0278181
-0.6575,0.0348578
-0.65625,0.0443012
-0.655,0.0803583
-0.65375,0.0767232
-0.6525,0.0350473
-0.65125,0.00783847
-0.65,-0.0156474
-0.64875,-0.0273927
-0.6475,-0.0351106
-0.64625,-0.0428701
-0.645,-0.0779123
-0.64375,-0.0776448
-0.6425,-0.0413526
-0.64125,-0.0111175
-0.64,0.0154039
-0.63875,0.0278181
-0.6375,0.0345211
-0.63625,0.0439644
-0.635,0.0803583
-0.63375,0.0770599
-0.6325,0.0350426
-0.63125,0.00783847
-0.63,-0.0156474
-0.62875,-0.0273927
-0.6275,-0.0347692
-0.62625,-0.0428701
-0.625,-0.0779123
-0.62375,-0.0773034
-0.6225,-0.0416893
-0.62125,-0.0111129
-0.62,0.0150671
-0.61875,0.0278181
-0.6175,0.0345211
-0.61625,0.0436276
-0.615,0.0800215
-0.61375,0.0770553
-0.6125,0.0353794
-0.61125,0.00783847
-0.61,-0.0159888
-0.60875,-0.0273927
-0.6075,-0.0347738
-0.60625,-0.0428701
-0.605,-0.0779123
-0.60375,-0.0776402
-0.6025,-0.0420261
-0.60125,-0.0114496
-0.6,0.0150671
-0.59875,0.0274813
-0.5975,0.0345211
-0.59625,0.0436276
-0.595,0.0796848
-0.59375,0.0773921
-0.5925,0.0357162
-0.59125,0.00783385
-0.59,-0.015652
-0.58875,-0.0273927
-0.5875,-0.0347738
-0.58625,-0.0425333
-0.585,-0.0775755
-0.58375,-0.0779769
-0.5825,-0.0420261
-0.58125,-0.0117864
-0.58,0.0147304
-0.57875,0.0274813
-0.5775,0.0345211
-0.57625,0.0436276
-0.575,0.0796801
-0.57375,0.0777288
-0.5725,0.0357162
-0.57125,0.00817062
-0.57,-0.015652
-0.56875,-0.0273927
-0.5675,-0.0347738
-0.56625,-0.0425333
-0.565,-0.0772387
-0.56375,-0.0783137
-0.5625,-0.0426996
-0.56125,-0.0121232
-0.56,0.0143936
-0.55875,0.0274813
-0.5575,0.0345211
-0.55625,0.0432909
-0.555,0.0793434
-0.55375,0.0780656
-0.5525,0.0360529
-0.55125,0.00850739
-0.55,-0.0153153
-0.54875,-0.0273973
-0.5475,-0.0347738
-0.54625,-0.0425333
-0.545,-0.0772387
-0.54375,-0.0786505
-0.5425,-0.0426996
-0.54125,-0.0121232
-0.54,0.0143936
-0.53875,0.0271445
-0.5375,0.0345211
-0.53625,0.0429541
-0.535,0.079348
-0.53375,0.0784024
-0.5325,0.0363897
-0.53125,0.00884415
-0.53,-0.0153153
-0.52875,-0.0273973
-0.5275,-0.0347738
-0.52625,-0.0421965
-0.525,-0.0765652
-0.52375,-0.0789872
-0.5225,-0.0430364
-0.52125,-0.0124599
-0.52,0.0140568
-0.51875,0.0274859
-0.5175,0.0341843
-0.51625,0.0429541
-0.515,0.0786698
-0.51375,0.0787391
-0.5125,0.0363897
-0.51125,0.00884415
-0.51,-0.0149785
-0.50875,-0.0273973
-0.5075,-0.034437
-0.50625,-0.0421965
-0.505,-0.0765652
-0.50375,-0.0789872
-0.5025,-0.0433732
-0.50125,-0.0127967
-0.5,0.0140568
-0.49875,0.0271445
-0.4975,0.0341843
-0.49625,0.0426173
-0.495,0.0783331
-0.49375,0.0787345
-0.4925,0.0367219
-0.49125,0.0091763
-0.49,-0.0149785
-0.48875,-0.0273973
-0.4875,-0.0347738
-0.48625,-0.0418598
-0.485,-0.0762284
-0.48375,-0.0789826
-0.4825,-0.0433732
-0.48125,-0.0127921
-0.48,0.0137201
-0.47875,0.0271492
-0.4775,0.0341843
-0.47625,0.0426173
-0.475,0.0783331
-0.47375,0.0790713
-0.4725,0.0370632
-0.47125,0.00951307
-0.47,-0.0146417
-0.46875,-0.0270559
-0.4675,-0.034437
-0.46625,-0.0418598
-0.465,-0.0762284
-0.46375,-0.0793194
-0.4625,-0.0437099
-0.46125,-0.0131288
-0.46,0.0137201
-0.45875,0.0268078
-0.4575,0.0341843
-0.45625,0.0422806
-0.455,0.0779963
-0.45375,0.079408
-0.4525,0.0370586
-0.45125,0.00951307
-0.45,-0.0149831
-0.44875,-0.0273973
-0.4475,-0.034437
-0.44625,-0.0418598
-0.445,-0.0758917
-0.44375,-0.0793194
-0.4425,-0.0440467
-0.44125,-0.0134656
-0.44,0.0137201
-0.43875,0.0268078
-0.4375,0.0338475
-0.43625,0.0422806
-0.435,0.0779963
-0.43375,0.0797448
-0.4325,0.0373954
-0.43125,0.00984983
-0.43,-0.0146417
-0.42875,-0.0270605
-0.4275,-0.034437
-0.42625,-0.041523
-0.425,-0.0758917
-0.42375,-0.0796562
-0.4225,-0.0443835
-0.42125,-0.0138024
-0.42,0.0133833
-0.41875,0.0268078
-0.4175,0.0338475
-0.41625,0.0419438
-0.415,0.0776595
-0.41375,0.0797448
-0.4125,0.0377322
-0.41125,0.00984521
-0.41,-0.014305
-0.40875,-0.0270605
-0.4075,-0.0341003
-0.40625,-0.0411816
-0.405,-0.0752135
-0.40375,-0.0796515
-0.4025,-0.0443835
-0.40125,-0.0141391
-0.4,0.0133879
-0.39875,0.0268124
-0.3975,0.0338475
-0.39625,0.0419438
-0.395,0.0776595
-0.39375,0.0797402
-0.3925,0.0380689
-0.39125,0.010182
-0.39,-0.014305
-0.38875,-0.0267191
-0.3875,-0.0341003
-0.38625,-0.041523
-0.385,-0.0748767
-0.38375,-0.0799883
-0.3825,-0.0447156
-0.38125,-0.0141345
-0.38,0.0133879
-0.37875,0.0271492
-0.3775,0.0341889
-0.37625,0.041607
-0.375,0.0773228
-0.37375,0.080077
-0.3725,0.0380689
-0.37125,0.010182
-0.37,-0.0143096
-0.36875,-0.0267237
-0.3675,-0.0337635
-0.36625,-0.0411816
-0.365,-0.0748767
-0.36375,-0.0799883
-0.3625,-0.0447156
-0.36125,-0.0141345
-0.36,0.0133879
-0.35875,0.0268124
-0.3575,0.0338475
-0.35625,0.041607
-0.355,0.0773228
-0.35375,0.0804137
-0.3525,0.0384057
-0.35125,0.0105187
-0.35,-0.0139728
-0.34875,-0.0263824
-0.3475,-0.0337635
-0.34625,-0.0411862
-0.345,-0.0748767
-0.34375,-0.0803251
-0.3425,-0.0450524
-0.34125,-0.0144713
-0.34,0.0130512
-0.33875,0.0268124
-0.3375,0.0341889
-0.33625,0.041607
-0.335,0.0773228
-0.33375,0.0807505
-0.3325,0.0387425
-0.33125,0.0108555
-0.33,-0.0139728
-0.32875,-0.0267237
-0.3275,-0.0337635
-0.32625,-0.0408448
-0.325,-0.0742032
-0.32375,-0.0806618
-0.3225,-0.0457259
-0.32125,-0.0144713
-0.32,0.0130512
-0.31875,0.0264756
-0.3175,0.0338521
-0.31625,0.0412703
-0.315,0.0766492
-0.31375,0.0810873
-0.3125,0.0390792
-0.31125,0.0111923
-0.31,-0.0139728
-0.30875,-0.0267237
-0.3075,-0.0337635
-0.30625,-0.0408448
-0.305,-0.0742032
-0.30375,-0.0809986
-0.3025,-0.0457259
-0.30125,-0.0151448
-0.3,0.0127144
-0.29875,0.0264756
-0.2975,0.0338521
-0.29625,0.0412703
-0.295,0.0766492
-0.29375,0.0810873
-0.2925,0.039416
-0.29125,0.011529
-0.29,-0.0139728
-0.28875,-0.0267237
-0.2875,-0.0337635
-0.28625,-0.0405081
-0.285,-0.0738664
-0.28375,-0.0806572
-0.2825,-0.0457259
-0.28125,-0.0151448
-0.28,0.012719
-0.27875,0.0264756
-0.2775,0.0338521
-0.27625,0.0412703
-0.275,0.0763125
-0.27375,0.081424
-0.2725,0.0397528
-0.27125,0.011529
-0.27,-0.0132993
-0.26875,-0.0260456
-0.2675,-0.0334267
-0.26625,-0.0405081
-0.265,-0.0735297
-0.26375,-0.080994
-0.2625,-0.0457213
-0.26125,-0.015477
-0.26,0.012719
-0.25875,0.0264756
-0.2575,0.0335154
-0.25625,0.0405967
-0.255,0.0766492
-0.25375,0.0817608
-0.2525,0.0397528
-0.25125,0.0118658
-0.25,-0.0132993
-0.24875,-0.026387
-0.2475,-0.0334267
-0.24625,-0.0401713
-0.245,-0.0738664
-0.24375,-0.080994
-0.2425,-0.0463994
-0.24125,-0.0158137
-0.24,0.0123823
-0.23875,0.0264756
-0.2375,0.0335154
-0.23625,0.0409335
-0.235,0.0763125
-0.23375,0.0814194
-0.2325,0.0400895
-0.23125,0.0118658
-0.23,-0.0132993
-0.22875,-0.0267237
-0.2275,-0.0337681
-0.22625,-0.0401713
-0.225,-0.0731929
-0.22375,-0.0813308
-0.2225,-0.0467362
-0.22125,-0.0158137
-0.22,0.0120455
-0.21875,0.0264756
-0.2175,0.0338568
-0.21625,0.0405967
-0.215,0.0759757
-0.21375,0.0817562
-0.2125,0.0404263
-0.21125,0.0118612
-0.21,-0.0129625
-0.20875,-0.026387
-0.2075,-0.0334267
-0.20625,-0.0401713
-0.205,-0.0728561
-0.20375,-0.0813308
-0.2025,-0.0463948
-0.20125,-0.0161505
-0.2,0.0120455
-0.19875,0.0264756
-0.1975,0.0335154
-0.19625,0.04026
-0.195,0.0756389
-0.19375,0.0820929
-0.1925,0.0410998
-0.19125,0.012198
-0.19,-0.0129625
-0.18875,-0.026387
-0.1875,-0.0334313
-0.18625,-0.0401713
-0.185,-0.0728561
-0.18375,-0.0816675
-0.1825,-0.0467316
-0.18125,-0.0161505
-0.18,0.0117087
-0.17875,0.0264756
-0.1775,0.0331786
-0.17625,0.04026
-0.175,0.0753022
-0.17375,0.0824297
-0.1725,0.0407584
-0.17125,0.0125347
-0.17,-0.0129671
-0.16875,-0.0260502
-0.1675,-0.0334313
-0.16625,-0.0401713
-0.165,-0.0725194
-0.16375,-0.0816675
-0.1625,-0.0474051
-0.16125,-0.016824
-0.16,0.0117087
-0.15875,0.0261389
-0.1575,0.0328418
-0.15625,0.0399186
-0.155,0.0749654
-0.15375,0.0824297
-0.1525,0.0414366
-0.15125,0.0128715
-0.15,-0.0126304
-0.14875,-0.0260502
-0.1475,-0.0334313
-0.14625,-0.0401713
-0.145,-0.0725194
-0.14375,-0.0819997
-0.1425,-0.0477419
-0.14125,-0.0174976
-0.14,0.011372
-0.13875,0.0261389
-0.1375,0.0331832
-0.13625,0.0399186
-0.135,0.0749654
-0.13375,0.0824251
-0.1325,0.041432
-0.13125,0.0125301
-0.13,-0.0126304
-0.12875,-0.0260502
-0.1275,-0.0330946
-0.12625,-0.0398345
-0.125,-0.0721826
-0.12375,-0.0816629
-0.1225,-0.0477419
-0.12125,-0.0171562
-0.12,0.011372
-0.11875,0.0261389
-0.1175,0.0328418
-0.11625,0.0399186
-0.115,0.0746286
-0.11375,0.0824251
-0.1125,0.0417687
-0.11125,0.0128669
-0.11,-0.0122936
-0.10875,-0.0260502
-0.1075,-0.0330946
-0.10625,-0.0394978
-0.105,-0.0715045
-0.10375,-0.0823364
-0.1025,-0.0480786
-0.10125,-0.0174929
-0.1,0.0110352
-0.09875,0.0261389
-0.0975,0.0331832
-0.09625,0.0399186
-0.095,0.0742919
-0.09375,0.0827619
-0.0925,0.0424423
-0.09125,0.0132036
-0.09,-0.0119568
-0.08875,-0.0260502
-0.0875,-0.0330946
-0.08625,-0.0398345
-0.085,-0.0715091
-0.08375,-0.0823364
-0.0825,-0.0484154
-0.08125,-0.0178297
-0.08,0.0106984
-0.07875,0.0261389
-0.0775,0.0331832
-0.07625,0.0395818
-0.075,0.0739505
-0.07375,0.0830986
-0.0725,0.0424423
-0.07125,0.0135404
-0.07,-0.0119568
-0.06875,-0.0257134
-0.0675,-0.0327578
-0.06625,-0.0394978
-0.065,-0.0711723
-0.06375,-0.0823364
-0.0625,-0.0487522
-0.06125,-0.0181665
-0.06,0.0106984
-0.05875,0.0258021
-0.0575,0.0331832
-0.05625,0.0395818
-0.055,0.0736137
-0.05375,0.0830986
-0.0525,0.0424423
-0.05125,0.0138772
-0.05,-0.0116201
-0.04875,-0.0260502
-0.0475,-0.0327578
-0.04625,-0.039161
-0.045,-0.0708309
-0.04375,-0.08301
-0.0425,-0.0490889
-0.04125,-0.0181665
-0.04,0.010703
-0.03875,0.0258021
-0.0375,0.0331832
-0.03625,0.039245
-0.035,0.0732769
-0.03375,0.0834354
-0.0325,0.042779
-0.03125,0.0135358
-0.03,-0.0119615
-0.02875,-0.0260548
-0.0275,-0.0327578
-0.02625,-0.0394978
-0.025,-0.0708355
-0.02375,-0.0826732
-0.0225,-0.0490889
-0.02125,-0.0185032
-0.02,0.010703
-0.01875,0.0258021
-0.0175,0.0328465
-0.01625,0.0389083
-0.015,0.0729402
-0.01375,0.0837675
-0.0125,0.0431158
-0.01125,0.0142139
-0.01,-0.0116247
-0.00875,-0.0257134
-0.0075,-0.0327578
-0.00625,-0.0391564
-0.005,-0.0698206
-0.00375,-0.0823318
-0.0025,-0.0490843
-0.00125,-0.01884
0,0.0103663
0.00125,0.0254653
0.0025,0.0328465
0.00375,0.039245
0.005,0.0729402
0.00625,0.0837675
0.0075,0.0434526
0.00875,0.0142093
0.01,-0.0112879
0.01125,-0.0257134
0.0125,-0.0327578
0.01375,-0.039161
0.015,-0.070162
0.01625,-0.0830053
0.0175,-0.0497625
0.01875,-0.0188354
0.02,0.0100295
0.02125,0.0254653
0.0225,0.0325097
0.02375,0.039245
0.025,0.0722666
0.02625,0.0837675
0.0275,0.0434479
0.02875,0.0145461
0.03,-0.0112879
0.03125,-0.0257134
0.0325,-0.0327624
0.03375,-0.039161
0.035,-0.070162
0.03625,-0.0830053
0.0375,-0.0500992
0.03875,-0.0191722
0.04,0.00969274
0.04125,0.0254653
0.0425,0.0325097
0.04375,0.0389083
0.045,0.0722666
0.04625,0.0841043
0.0475,0.0441215
0.04875,0.0145461
0.05,-0.0109512
0.05125,-0.0257134
0.0525,-0.032421
0.05375,-0.0388196
0.055,-0.0694839
0.05625,-0.0830053
0.0575,-0.0500946
0.05875,-0.0195089
0.06,0.00969274
0.06125,0.0254699
0.0625,0.0328511
0.06375,0.0389083
0.065,0.0719299
0.06625,0.0844411
0.0675,0.0441215
0.06875,0.0148828
0.07,-0.0109512
0.07125,-0.0260548
0.0725,-0.0327624
0.07375,-0.0388242
0.075,-0.0688103
0.07625,-0.0833421
0.0775,-0.0500946
0.07875,-0.0198457
0.08,0.00935597
0.08125,0.0251286
0.0825,0.0325097
0.08375,0.0389083
0.085,0.0715931
0.08625,0.0844411
0.0875,0.0444582
0.08875,0.0152196
0.09,-0.0106144
0.09125,-0.0253767
0.0925,-0.0324257
0.09375,-0.0388196
0.095,-0.0688103
0.09625,-0.0836789
0.0975,-0.0504314
0.09875,-0.0198457
0.1,0.00901921
0.10125,0.0258067
0.1025,0.0325097
0.10375,0.0385715
0.105,0.0712563
0.10625,0.0844364
0.1075,0.044795
0.10875,0.0155564
0.11,-0.010619
0.11125,-0.0257181
0.1125,-0.0324257
0.11375,-0.0388196
0.115,-0.0684736
0.11625,-0.0833375
0.1175,-0.0507682
0.11875,-0.0201825
0.12,0.00936059
0.12125,0.0254699
0.1225,0.0328511
0.12375,0.0385715
0.125,0.0712563
0.12625,0.0847732
0.1275,0.0451318
0.12875,0.0158931
0.13,-0.0102776
0.13125,-0.0257181
0.1325,-0.0324257
0.13375,-0.0384828
0.135,-0.0681368
0.13625,-0.0836743
0.1375,-0.0511049
0.13875,-0.0198411
0.14,0.00902383
0.14125,0.0254699
0.1425,0.0325097
0.14375,0.0385715
0.145,0.0709196
0.14625,0.0847732
0.1475,0.0454685
0.14875,0.0155518
0.15,-0.00994547
0.15125,-0.0253813
0.1525,-0.0320889
0.15375,-0.0388196
0.155,-0.0678
0.15625,-0.0836743
0.1575,-0.0514417
0.15875,-0.0205146
0.16,0.00868706
0.16125,0.0254699
0.1625,0.0325143
0.16375,0.0382347
0.165,0.0705828
0.16625,0.0854467
0.1675,0.0458053
0.16875,0.0158885
0.17,-0.00994547
0.17125,-0.0253813
0.1725,-0.0324257
0.17375,-0.0388196
0.175,-0.0674633
0.17625,-0.0836743
0.1775,-0.0517785
0.17875,-0.0205146
0.18,0.00868706
0.18125,0.0251332
0.1825,0.0325143
0.18375,0.0378933
0.185,0.070246
0.18625,0.08511
0.1875,0.0461421
0.18875,0.0158885
0.19,-0.00994547
0.19125,-0.0253813
0.1925,-0.0320889
0.19375,-0.0384828
0.195,-0.0671265
0.19625,-0.0843478
0.1975,-0.0521152
0.19875,-0.0208514
0.2,0.00835029
0.20125,0.0251332
0.2025,0.0325143
0.20375,0.0382347
0.205,0.0699093
0.20625,0.08511
0.2075,0.0464788
0.20875,0.0165621
0.21,-0.00960871
0.21125,-0.0250445
0.2125,-0.0320889
0.21375,-0.0384828
0.215,-0.0667897
0.21625,-0.0843478
0.2175,-0.0517738
0.21875,-0.0211881
0.22,0.00835029
0.22125,0.0251332
0.2225,0.0325143
0.22375,0.0382347
0.225,0.0695725
0.22625,0.0854421
0.2275,0.0464742
0.22875,0.0165621
0.23,-0.00960871
0.23125,-0.0250445
0.2325,-0.0320889
0.23375,-0.0384828
0.235,-0.066453
0.23625,-0.0843478
0.2375,-0.0524474
0.23875,-0.0215249
0.24,0.00801815
0.24125,0.0247964
0.2425,0.0321776
0.24375,0.0382347
0.245,0.0695725
0.24625,0.0854421
0.2475,0.046811
0.24875,0.0168988
0.25,-0.00927194
0.25125,-0.0250445
0.2525,-0.0320889
0.25375,-0.0384828
0.255,-0.066453
0.25625,-0.0843432
0.2575,-0.0527841
0.25875,-0.0215249
0.26,0.00801815
0.26125,0.0247964
0.2625,0.0321776
0.26375,0.0382347
0.265,0.0692357
0.26625,0.0854421
0.2675,0.0471478
0.26875,0.0168988
0.27,-0.00893517
0.27125,-0.0247078
0.2725,-0.0320889
0.27375,-0.0384828
0.275,-0.0661162
0.27625,-0.0843432
0.2775,-0.0527841
0.27875,-0.0221984
0.28,0.00768138
0.28125,0.0247964
0.2825,0.0321776
0.28375,0.037898
0.285,0.0685622
0.28625,0.0857789
0.2875,0.0474845
0.28875,0.0172356
0.29,-0.00927656
0.29125,-0.0247078
0.2925,-0.0317521
0.29375,-0.0384828
0.295,-0.0654427
0.29625,-0.0843432
0.2975,-0.0534577
0.29875,-0.0221984
0.3,0.00734461
0.30125,0.0244596
0.3025,0.0318408
0.30375,0.0382347
0.305,0.0685622
0.30625,0.0857789
0.3075,0.0478213
0.30875,0.0175724
0.31,-0.00927656
0.31125,-0.0247078
0.3125,-0.0317521
0.31375,-0.0384828
0.315,-0.0647691
0.31625,-0.0843432
0.3175,-0.0537944
0.31875,-0.022872
0.32,0.00700785
0.32125,0.0241229
0.3225,0.0318408
0.32375,0.0375566
0.325,0.0678887
0.32625,0.0857789
0.3275,0.0484948
0.32875,0.0175677
0.33,-0.00893979
0.33125,-0.0247124
0.3325,-0.0320935
0.33375,-0.0384828
0.335,-0.0651059
0.33625,-0.0843432
0.3375,-0.0541312
0.33875,-0.0232087
0.34,0.00700785
0.34125,0.0244596
0.3425,0.031504
0.34375,0.0375566
0.345,0.0675519
0.34625,0.0861157
0.3475,0.0488316
0.34875,0.0175677
0.35,-0.00860303
0.35125,-0.0247124
0.3525,-0.0317521
0.35375,-0.0384828
0.355,-0.0644324
0.35625,-0.0843432
0.3575,-0.0541312
0.35875,-0.0228674
0.36,0.00667108
0.36125,0.0237861
0.3625,0.031504
0.36375,0.0375566
0.365,0.0672105
0.36625,0.0857789
0.3675,0.0491684
0.36875,0.0179045
0.37,-0.00860303
0.37125,-0.0247124
0.3725,-0.0320935
0.37375,-0.0381461
0.375,-0.0640956
0.37625,-0.0850167
0.3775,-0.054468
0.37875,-0.0232041
0.38,0.00633431
0.38125,0.0241229
0.3825,0.031504
0.38375,0.0375566
0.385,0.0668738
0.38625,0.0857743
0.3875,0.048827
0.38875,0.0179045
0.39,-0.00792949
0.39125,-0.0243756
0.3925,-0.0317568
0.39375,-0.0384828
0.395,-0.0640956
0.39625,-0.0850167
0.3975,-0.054468
0.39875,-0.0235409
0.4,0.00599755
0.40125,0.0241229
0.4025,0.031504
0.40375,0.0372198
0.405,0.0662002
0.40625,0.0864478
0.4075,0.0498419
0.40875,0.0182413
0.41,-0.00792949
0.41125,-0.0243756
0.4125,-0.0317521
0.41375,-0.0384828
0.415,-0.0637588
0.41625,-0.0850121
0.4175,-0.0551415
0.41875,-0.0235409
0.42,0.00633894
0.42125,0.0237861
0.4225,0.031504
0.42375,0.0375566
0.425,0.0665416
0.42625,0.086111
0.4275,0.0495005
0.42875,0.0182367
0.43,-0.00792949
0.43125,-0.0243756
0.4325,-0.0317568
0.43375,-0.0381461
0.435,-0.0634221
0.43625,-0.0853489
0.4375,-0.0551369
0.43875,-0.0238777
0.44,0.00600217
0.44125,0.0241275
0.4425,0.031504
0.44375,0.0378933
0.445,0.0655267
0.44625,0.086111
0.4475,0.050174
0.44875,0.0182367
0.45,-0.00793411
0.45125,-0.0240388
0.4525,-0.0317568
0.45375,-0.0384828
0.455,-0.0630853
0.45625,-0.0853489
0.4575,-0.0551369
0.45875,-0.0242144
0.46,0.00600217
0.46125,0.0241275
0.4625,0.031504
0.46375,0.0375566
0.465,0.0655267
0.46625,0.0867846
0.4675,0.050174
0.46875,0.0185734
0.47,-0.00759735
0.47125,-0.0240388
0.4725,-0.0317568
0.47375,-0.0384828
0.475,-0.0627485
0.47625,-0.0850121
0.4775,-0.0558104
0.47875,-0.0242098
0.48,0.0056654
0.48125,0.0237907
0.4825,0.031504
0.48375,0.0375566
0.485,0.0651899
0.48625,0.0864478
0.4875,0.0508476
0.48875,0.0189102
0.49,-0.00759735
0.49125,-0.0240388
0.4925,-0.03142
0.49375,-0.0381461
0.495,-0.0624118
0.49625,-0.0853489
0.4975,-0.0561472
0.49875,-0.0245466
0.5,0.0056654
0.50125,0.0237907
0.5025,0.031504
0.50375,0.0375566
0.505,0.0648532
0.50625,0.0864478
0.5075,0.0511843
0.50875,0.0189102
0.51,-0.00726058
0.51125,-0.0237021
0.5125,-0.03142
0.51375,-0.0381461
0.515,-0.062075
0.51625,-0.0853489
0.5175,-0.0561472
0.51875,-0.0245466
0.52,0.00532864
0.52125,0.0237907
0.5225,0.0315086
0.52375,0.0375566
0.525,0.0645164
0.52625,0.0864432
0.5275,0.0515211
0.52875,0.019247
0.53,-0.00692381
0.53125,-0.0237021
0.5325,-0.03142
0.53375,-0.0381461
0.535,-0.0617382
0.53625,-0.0853489
0.5375,-0.0568207
0.53875,-0.0248833
0.54,0.00499187
0.54125,0.023454
0.5425,0.0315086
0.54375,0.0378933
0.545,0.0645164
0.54625,0.0864432
0.5475,0.0518533
0.54875,0.0195837
0.55,-0.00692381
0.55125,-0.0237021
0.5525,-0.03142
0.55375,-0.0381461
0.555,-0.0614015
0.55625,-0.0856856
0.5575,-0.0571575
0.55875,-0.0252201
0.56,0.00499187
0.56125,0.0231172
0.5625,0.0315086
0.56375,0.0375566
0.565,0.0638429
0.56625,0.0864432
0.5675,0.05219
0.56875,0.0199205
0.57,-0.00658705
0.57125,-0.0233653
0.5725,-0.03142
0.57375,-0.0378047
0.575,-0.0614015
0.57625,-0.0853489
0.5775,-0.0574942
0.57875,-0.0255569
0.58,0.0046551
0.58125,0.0231172
0.5825,0.0315086
0.58375,0.0375566
0.585,0.0635061
0.58625,0.08678
0.5875,0.0525268
0.58875,0.0199205
0.59,-0.00659167
0.59125,-0.0237067
0.5925,-0.0310832
0.59375,-0.0378047
0.595,-0.0607279
0.59625,-0.0853489
0.5975,-0.0574896
0.59875,-0.0255569
0.6,0.00465972
0.60125,0.0231172
0.6025,0.0315086
0.60375,0.0372152
0.605,0.0635061
0.60625,0.0864432
0.6075,0.0532003
0.60875,0.0199159
0.61,-0.00659167
0.61125,-0.0233653
0.6125,-0.0310832
0.61375,-0.0381461
0.615,-0.0607279
0.61625,-0.0853442
0.6175,-0.0578264
0.61875,-0.0258936
0.62,0.00465972
0.62125,0.0227804
0.6225,0.0311719
0.62375,0.0375566
0.625,0.0628326
0.62625,0.08678
0.6275,0.0535371
0.62875,0.0202526
0.63,-0.0062549
0.63125,-0.0233699
0.6325,-0.0310832
0.63375,-0.0381415
0.635,-0.0603912
0.63625,-0.0853442
0.6375,-0.0581632
0.63875,-0.0262304
0.64,0.00432296
0.64125,0.0227804
0.6425,0.0311719
0.64375,0.0372198
0.645,0.0624958
0.64625,0.0871167
0.6475,0.0538739
0.64875,0.0205894
0.65,-0.00591813
0.65125,-0.0233699
0.6525,-0.0310832
0.65375,-0.0378047
0.655,-0.0600544
0.65625,-0.0850075
0.6575,-0.0584999
0.65875,-0.0262258
0.66,0.00432296
0.66125,0.0227804
0.6625,0.0311719
0.66375,0.0372152
0.665,0.062159
0.66625,0.08678
0.6675,0.0542106
0.66875,0.0205894
0.67,-0.00591813
0.67125,-0.0233699
0.6725,-0.0310832
0.67375,-0.0378047
0.675,-0.0597176
0.67625,-0.0853442
0.6775,-0.0588367
0.67875,-0.0262258
0.68,0.00398619
0.68125,0.0227851
0.6825,0.0311719
0.68375,0.0375566
0.685,0.0618223
0.68625,0.0864432
0.6875,0.0545474
0.68875,0.0209262
0.69,-0.00558137
0.69125,-0.0230332
0.6925,-0.0307465
0.69375,-0.0381415
0.695,-0.0593762
0.69625,-0.0853442
0.6975,-0.0591735
0.69875,-0.0268993
0.7,0.00364942
0.70125,0.0227851
0.7025,0.0308351
0.70375,0.0372198
0.705,0.0614855
0.70625,0.08678
0.7075,0.0548795
0.70875,0.0212629
0.71,-0.0052446
0.71125,-0.0230332
0.7125,-0.0307465
0.71375,-0.0378047
0.715,-0.0590441
0.71625,-0.0853442
0.7175,-0.0591688
0.71875,-0.0268993
0.72,0.00365404
0.72125,0.0224483
0.7225,0.0311719
0.72375,0.0375566
0.725,0.0614855
0.72625,0.08678
0.7275,0.0552163
0.72875,0.0215997
0.73,-0.0052446
0.73125,-0.0230332
0.7325,-0.0304097
0.73375,-0.0378047
0.735,-0.0587027
0.73625,-0.0853396
0.7375,-0.0595056
0.73875,-0.0272361
0.74,0.00331728
0.74125,0.0227851
0.7425,0.0311719
0.74375,0.0375566
0.745,0.0611487
0.74625,0.08678
0.7475,0.0558945
0.74875,0.0219365
0.75,-0.00490783
0.75125,-0.0226964
0.7525,-0.0304097
0.75375,-0.0378047
0.755,-0.0587027
0.75625,-0.0850028
0.7575,-0.0598424
0.75875,-0.0275728
0.76,0.00331728
0.76125,0.0224483
0.7625,0.0311765
0.76375,0.0372198
0.765,0.060812
0.76625,0.0867753
0.7675,0.0558898
0.76875,0.0219365
0.77,-0.00491245
0.77125,-0.0226964
0.7725,-0.0307465
0.77375,-0.0378047
0.775,-0.0583706
0.77625,-0.0853442
0.7775,-0.0601791
0.77875,-0.0279096
0.78,0.00298051
0.78125,0.0221115
0.7825,0.0311765
0.78375,0.0372152
0.785,0.060812
0.78625,0.0864386
0.7875,0.0562266
0.78875,0.0219318
0.79,-0.00491245
0.79125,-0.0226964
0.7925,-0.0304143
0.79375,-0.0374679
0.795,-0.0576924
0.79625,-0.0853396
0.7975,-0.0605159
0.79875,-0.0275682
0.8,0.00264374
0.80125,0.0221115
0.8025,0.0308351
0.80375,0.0372152
0.805,0.0601384
0.80625,0.0861018
0.8075,0.0569001
0.80875,0.0219318
0.81,-0.00457569
0.81125,-0.0223596
0.8125,-0.0307511
0.81375,-0.0378047
0.815,-0.0576924
0.81625,-0.0850028
0.8175,-0.0608527
0.81875,-0.0282418
0.82,0.00230698
0.82125,0.0221115
0.8225,0.0308397
0.82375,0.0372198
0.825,0.0598017
0.82625,0.0867753
0.8275,0.0569001
0.82875,0.0222686
0.83,-0.00423892
0.83125,-0.0223596
0.8325,-0.0307511
0.83375,-0.0378047
0.835,-0.0573556
0.83625,-0.0846661
0.8375,-0.0611848
0.83875,-0.0285785
0.84,0.0023116
0.84125,0.0217748
0.8425,0.0308397
0.84375,0.0368784
0.845,0.0598017
0.84625,0.0864386
0.8475,0.0572369
0.84875,0.0226054
0.85,-0.00423892
0.85125,-0.0223596
0.8525,-0.0304097
0.85375,-0.0374679
0.855,-0.0566821
0.85625,-0.0853396
0.8575,-0.0611848
0.85875,-0.0285785
0.86,0.0023116
0.86125,0.0221161
0.8625,0.0308397
0.86375,0.0368784
0.865,0.0594649
0.86625,0.0861018
0.8675,0.0579104
0.86875,0.0229421
0.87,-0.00390216
0.87125,-0.0220229
0.8725,-0.0307511
0.87375,-0.0374633
0.875,-0.0566821
0.87625,-0.0850028
0.8775,-0.0615216
0.87875,-0.0289153
0.88,0.00197483
0.88125,0.0217748
0.8825,0.0308397
0.88375,0.0372198
0.885,0.0591281
0.88625,0.0867753
0.8875,0.0582472
0.88875,0.0229421
0.89,-0.00390678
0.89125,-0.0216861
0.8925,-0.0304143
0.89375,-0.0378047
0.895,-0.0563453
0.89625,-0.0846661
0.8975,-0.0618584
0.89875,-0.0292521
0.9,0.00163806
0.90125,0.0217794
0.9025,0.030503
0.90375,0.0368784
0.905,0.0587914
0.90625,0.0864386
0.9075,0.0585793
0.90875,0.0232789
0.91,-0.00390678
0.91125,-0.0216861
0.9125,-0.0304143
0.91375,-0.0374679
0.915,-0.0560086
0.91625,-0.0853396
0.9175,-0.0621951
0.91875,-0.0292521
0.92,0.00163806
0.92125,0.0217794
0.9225,0.030503
0.92375,0.0372152
0.925,0.0584546
0.92625,0.0861018
0.9275,0.0589161
0.92875,0.0236157
0.93,-0.00357001
0.93125,-0.0216861
0.9325,-0.0304143
0.93375,-0.0374679
0.935,-0.0556718
0.93625,-0.0846615
0.9375,-0.0621905
0.93875,-0.0295888
0.94,0.00164268
0.94125,0.0217794
0.9425,0.030503
0.94375,0.0372198
0.945,0.0581178
0.94625,0.0864386
0.9475,0.0592529
0.94875,0.0239524
0.95,-0.00323324
0.95125,-0.0213493
0.9525,-0.0300775
0.95375,-0.0374679
0.955,-0.0556718
0.95625,-0.0846661
0.9575,-0.0625273
0.95875,-0.0295888
0.96,0.00164268
0.96125,0.0214426
0.9625,0.030503
0.96375,0.0368784
0.965,0.0577811
0.96625,0.0860972
0.9675,0.0595896
0.96875,0.0239524
0.97,-0.00323324
0.97125,-0.0220275
0.9725,-0.0304143
0.97375,-0.0374679
0.975,-0.055335
0.97625,-0.0846615
0.9775,-0.062864
0.97875,-0.0299256
0.98,0.000969151
0.98125,0.0214426
0.9825,0.030503
0.98375,0.0368784
0.985,0.0574443
0.98625,0.0861018
0.9875,0.0599264
0.98875,0.0239524
0.99,-0.00289648
0.99125,-0.0216907
0.9925,-0.0300775
0.99375,-0.0374679
0.995,-0.0549983
0.99625,-0.0846615
0.9975,-0.0635376
0.99875,-0.0302577
1,0.000969151
1.00125,0.0211058
1.0025,0.0301662
1.00375,0.0365417
1.005,0.0571075
1.00625,0.0860972
1.0075,0.0605999
1.00875,0.0242892
1.01,-0.00255971
1.01125,-0.0216907
1.0125,-0.0300775
1.01375,-0.0371265
1.015,-0.0549983
1.01625,-0.0843247
1.0175,-0.0638743
1.01875,-0.0302577
1.02,0.000632384
1.02125,0.0211058
1.0225,0.0301662
1.02375,0.0368784
1.025,0.0571075
1.02625,0.0860972
1.0275,0.0602586
1.02875,0.0242892
1.03,-0.0029011
1.03125,-0.0216907
1.0325,-0.0300775
1.03375,-0.0371312
1.035,-0.0543247
1.03625,-0.0846615
1.0375,-0.0638743
1.03875,-0.0305945
1.04,0.000295618
1.04125,0.0211058
1.0425,0.0301662
1.04375,0.0368784
1.045,0.0567708
1.04625,0.0857604
1.0475,0.0609367
1.04875,0.0249627
1.05,-0.00256433
1.05125,-0.021354
1.0525,-0.0300775
1.05375,-0.0367898
1.055,-0.0543247
1.05625,-0.0846615
1.0575,-0.0642111
1.05875,-0.0309313
1.06,0.000295618
1.06125,0.0211058
1.0625,0.0301662
1.06375,0.0365417
1.065,0.056434
1.06625,0.0860972
1.0675,0.0612689
1.06875,0.0246214
1.07,-0.00222756
1.07125,-0.021354
1.0725,-0.0300775
1.07375,-0.0367898
1.075,-0.053988
1.07625,-0.0843247
1.0775,-0.0642065
1.07875,-0.0309313
1.08,-3.65285e-05
1.08125,0.0207737
1.0825,0.0301662
1.08375,0.0368784
1.085,0.056434
1.08625,0.0857604
1.0875,0.0616056
1.08875,0.0249581
1.09,-0.0018908
1.09125,-0.021354
1.0925,-0.0300775
1.09375,-0.0367898
1.095,-0.0536512
1.09625,-0.0846615
1.0975,-0.0645432
1.09875,-0.031268
1.1,-3.65285e-05
1.10125,0.0207737
1.1025,0.0301662
1.10375,0.0368784
1.105,0.0557605
1.10625,0.0857604
1.1075,0.0619424
1.10875,0.0252949
1.11,-0.00155403
1.11125,-0.0210172
1.1125,-0.0297408
1.11375,-0.0367898
1.115,-0.0536512
1.11625,-0.0843247
1.1175,-0.06488
1.11875,-0.0316048
1.12,-0.000373295
1.12125,0.0207737
1.1225,0.0298294
1.12375,0.0365417
1.125,0.0554237
1.12625,0.0860972
1.1275,0.0622792
1.12875,0.0252949
1.13,-0.00155403
1.13125,-0.0210172
1.1325,-0.0297408
1.13375,-0.0367898
1.135,-0.0533144
1.13625,-0.0839879
1.1375,-0.0652168
1.13875,-0.0316002
1.14,-0.000710062
1.14125,0.0207737
1.1425,0.0298294
1.14375,0.0365417
1.145,0.0554237
1.14625,0.0860972
1.1475,0.0626159
1.14875,0.0256317
1.15,-0.00121726
1.15125,-0.0210172
1.1525,-0.0297408
1.15375,-0.0367898
1.155,-0.0533144
1.15625,-0.0843247
1.1575,-0.0655535
1.15875,-0.0319416
1.16,-0.000710062
1.16125,0.0207737
1.1625,0.0301708
1.16375,0.0365417
1.165,0.0547502
1.16625,0.0857604
1.1675,0.0626113
1.16875,0.0259684
1.17,-0.00155865
1.17125,-0.0210218
1.1725,-0.0297408
1.17375,-0.0367898
1.175,-0.0529777
1.17625,-0.0839879
1.1775,-0.0658903
1.17875,-0.0322783
1.18,-0.00138359
1.18125,0.0204369
1.1825,0.0301708
1.18375,0.0362049
1.185,0.0547502
1.18625,0.0857558
1.1875,0.0629481
1.18875,0.0259684
1.19,-0.00122188
1.19125,-0.0206804
1.1925,-0.0297408
1.19375,-0.0367898
1.195,-0.0526409
1.19625,-0.0839879
1.1975,-0.0662271
1.19875,-0.0322737
1.2,-0.00104221
1.20125,0.0201002
1.2025,0.0298294
1.20375,0.0365417
1.205,0.0544134
1.20625,0.0857604
1.2075,0.0636216
1.20875,0.0263052
1.21,-0.000885117
1.21125,-0.0206804
1.2125,-0.0297408
1.21375,-0.036453
1.215,-0.0523041
1.21625,-0.0839833
1.2175,-0.0665638
1.21875,-0.0322737
1.22,-0.00137897
1.22125,0.0201002
1.2225,0.0301708
1.22375,0.0365417
1.225,0.0544134
1.22625,0.0850823
1.2275,0.0639584
1.22875,0.026642
1.23,-0.00054835
1.23125,-0.020685
1.2325,-0.029404
1.23375,-0.0371312
1.235,-0.0523041
1.23625,-0.0839879
1.2375,-0.0665592
1.23875,-0.0326105
1.24,-0.00137897
1.24125,0.0204369
1.2425,0.0301708
1.24375,0.0362049
1.245,0.0540766
1.24625,0.085419
1.2475,0.0642951
1.24875,0.026642
1.25,-0.000211583
1.25125,-0.020685
1.2525,-0.0297408
1.25375,-0.0367898
1.255,-0.0519674
1.25625,-0.0836465
1.2575,-0.066896
1.25875,-0.0326105
1.26,-0.00171574
1.26125,0.0197634
1.2625,0.0298341
1.26375,0.0362049
1.265,0.0537399
1.26625,0.085419
1.2675,0.0646319
1.26875,0.0266373
1.27,-0.000216204
1.27125,-0.020685
1.2725,-0.0297454
1.27375,-0.036453
1.275,-0.0516306
1.27625,-0.0836465
1.2775,-0.0672328
1.27875,-0.0329472
1.28,-0.00205251
1.28125,0.0197634
1.2825,0.0294927
1.28375,0.0362049
1.285,0.0530617
1.28625,0.0850823
1.2875,0.0646273
1.28875,0.0266373
1.29,-0.000216204
1.29125,-0.0203483
1.2925,-0.0294086
1.29375,-0.036453
1.295,-0.0512938
1.29625,-0.0836465
1.2975,-0.0675695
1.29875,-0.033284
1.3,-0.00272604
1.30125,0.0197634
1.3025,0.0298341
1.30375,0.0362049
1.305,0.0527249
1.30625,0.085419
1.3075,0.0653008
1.30875,0.0269741
1.31,0.000120563
1.31125,-0.0200115
1.3125,-0.0294086
1.31375,-0.036453
1.315,-0.0512938
1.31625,-0.0833098
1.3175,-0.0679063
1.31875,-0.0336208
1.32,-0.00272604
1.32125,0.0194266
1.3225,0.0298341
1.32375,0.0362049
1.325,0.0527249
1.32625,0.0850823
1.3275,0.0653008
1.32875,0.0273109
1.33,0.000120563
1.33125,-0.0200115
1.3325,-0.0294086
1.33375,-0.0364576
1.335,-0.0506203
1.33625,-0.0836465
1.3375,-0.0682431
1.33875,-0.0339575
1.34,-0.00272142
1.34125,0.0194266
1.3425,0.0298341
1.34375,0.0362049
1.345,0.0523882
1.34625,0.0850823
1.3475,0.0656376
1.34875,0.0276476
1.35,0.000457329
1.35125,-0.0200115
1.3525,-0.0294086
1.35375,-0.036453
1.355,-0.0506203
1.35625,-0.0833098
1.3575,-0.0685798
1.35875,-0.0339575
1.36,-0.00339495
1.36125,0.0194312
1.3625,0.0294973
1.36375,0.0358681
1.365,0.0523882
1.36625,0.085419
1.3675,0.0663111
1.36875,0.0276476
1.37,0.000452709
1.37125,-0.0200115
1.3725,-0.0297454
1.37375,-0.036453
1.375,-0.0502835
1.37625,-0.082973
1.3775,-0.0685752
1.37875,-0.0342943
1.38,-0.00339495
1.38125,0.0194312
1.3825,0.0294973
1.38375,0.0362049
1.385,0.0520514
1.38625,0.0850823
1.3875,0.0663065
1.38875,0.0279844
1.39,0.000789476
1.39125,-0.0196747
1.3925,-0.0294086
1.39375,-0.0364576
1.395,-0.0499468
1.39625,-0.0833098
1.3975,-0.068912
1.39875,-0.0342943
1.4,-0.00373172
1.40125,0.0190945
1.4025,0.0294973
1.40375,0.0358681
1.405,0.0517146
1.40625,0.0847455
1.4075,0.06698
1.40875,0.0283212
1.41,0.00112624
1.41125,-0.0196747
1.4125,-0.0294086
1.41375,-0.036453
1.415,-0.0499468
1.41625,-0.082973
1.4175,-0.068912
1.41875,-0.0346311
1.42,-0.00373172
1.42125,0.0190945
1.4225,0.0294973
1.42375,0.0358681
1.425,0.0513779
1.42625,0.0850823
1.4275,0.06698
1.42875,0.0283212
1.43,0.00112624
1.43125,-0.0196794
1.4325,-0.0294086
1.43375,-0.0361162
1.435,-0.0492686
1.43625,-0.082973
1.4375,-0.0692487
1.43875,-0.0353046
1.44,-0.00440525
1.44125,0.0190945
1.4425,0.0294973
1.44375,0.0358681
1.445,0.0513779
1.44625,0.0847455
1.4475,0.0676536
1.44875,0.0286579
1.45,0.00146301
1.45125,-0.0196794
1.4525,-0.0294086
1.45375,-0.0361162
1.455,-0.0492686
1.45625,-0.0833098
1.4575,-0.0695855
1.45875,-0.0346265
1.46,-0.00406387
1.46125,0.0187577
1.4625,0.0294973
1.46375,0.0358681
1.465,0.0510411
1.46625,0.0847455
1.4675,0.0679903
1.46875,0.0289947
1.47,0.00179978
1.47125,-0.0193426
1.4725,-0.0294086
1.47375,-0.0361162
1.475,-0.0489319
1.47625,-0.0826316
1.4775,-0.0699223
1.47875,-0.0349632
1.48,-0.00440063
1.48125,0.0187577
1.4825,0.0291605
1.48375,0.0355314
1.485,0.0507043
1.48625,0.0844041
1.4875,0.0683271
1.48875,0.0286533
1.49,0.00213654
1.49125,-0.0193426
1.4925,-0.0294086
1.49375,-0.0361162
1.495,-0.0485951
1.49625,-0.0826362
1.4975,-0.0702544
1.49875,-0.0353
1.5,-0.0047374
1.50125,0.018421
1.5025,0.0291605
1.50375,0.0355314
1.505,0.0503676
1.50625,0.0844041
1.5075,0.0686639
1.50875,0.0289901
1.51,0.00213192
1.51125,-0.0193426
1.5125,-0.0290719
1.51375,-0.0357795
1.515,-0.0482583
1.51625,-0.0826316
1.5175,-0.0702544
1.51875,-0.0356368
1.52,-0.0047374
1.52125,0.018421
1.5225,0.0291605
1.52375,0.0358681
1.525,0.0500308
1.52625,0.084072
1.5275,0.068996
1.52875,0.0289901
1.53,0.00246869
1.53125,-0.0190058
1.5325,-0.0290719
1.53375,-0.0361162
1.535,-0.0485997
1.53625,-0.0822948
1.5375,-0.070928
1.53875,-0.0359735
1.54,-0.00541093
1.54125,0.018421
1.5425,0.0291605
1.54375,0.0355314
1.545,0.049694
1.54625,0.0840673
1.5475,0.0693328
1.54875,0.0293269
1.55,0.00280546
1.55125,-0.0186691
1.5525,-0.0290719
1.55375,-0.0361162
1.555,-0.0482583
1.55625,-0.0822948
1.5575,-0.0712647
1.55875,-0.0359735
1.56,-0.00541093
1.56125,0.0180842
1.5625,0.0291605
1.56375,0.0358681
1.565,0.049694
1.56625,0.0837306
1.5675,0.0696695
1.56875,0.0296636
1.57,0.00314222
1.57125,-0.0186691
1.5725,-0.0290719
1.57375,-0.0357795
1.575,-0.0475848
1.57625,-0.0822948
1.5775,-0.0716015
1.57875,-0.0363103
1.58,-0.00540631
1.58125,0.0180888
1.5825,0.0288238
1.58375,0.0355314
1.585,0.0493573
1.58625,0.0833938
1.5875,0.0700063
1.58875,0.0300004
1.59,0.00314222
1.59125,-0.0186691
1.5925,-0.0287351
1.59375,-0.0357795
1.595,-0.0475848
1.59625,-0.0819581
1.5975,-0.0715969
1.59875,-0.0366471
1.6,-0.00574308
1.60125,0.0177474
1.6025,0.0288238
1.60375,0.0355314
1.605,0.0490205
1.60625,0.0837306
1.6075,0.0703385
1.60875,0.0300004
1.61,0.0031376
1.61125,-0.0183323
1.6125,-0.0290719
1.61375,-0.0357795
1.615,-0.047248
1.61625,-0.0816213
1.6175,-0.0719336
1.61875,-0.0369838
1.62,-0.00607985
1.62125,0.0180888
1.6225,0.0288238
1.62375,0.0358681
1.625,0.0490205
1.62625,0.0833938
1.6275,0.0706752
1.62875,0.0303372
1.63,0.00347437
1.63125,-0.0183323
1.6325,-0.0287351
1.63375,-0.0357841
1.635,-0.0469113
1.63625,-0.0816213
1.6375,-0.0722704
1.63875,-0.0373206
1.64,-0.00607985
1.64125,0.0180888
1.6425,0.0288238
1.64375,0.0358681
1.645,0.0486837
1.64625,0.083057
1.6475,0.071012
1.64875,0.0306739
1.65,0.00347437
1.65125,-0.0183369
1.6525,-0.0287351
1.65375,-0.0354427
1.655,-0.0469113
1.65625,-0.0812845
1.6575,-0.0722704
1.65875,-0.0373206
1.66,-0.00675338
1.66125,0.017752
1.6625,0.0288238
1.66375,0.0355314
1.665,0.048347
1.66625,0.0833938
1.6675,0.0713488
1.66875,0.0306739
1.67,0.00381113
1.67125,-0.0183369
1.6725,-0.0287351
1.67375,-0.0354427
1.675,-0.0465745
1.67625,-0.0809478
1.6775,-0.0729439
1.67875,-0.0376574
1.68,-0.00709015
1.68125,0.0174153
1.6825,0.028487
1.68375,0.0355314
1.685,0.0480102
1.68625,0.0833938
1.6875,0.0716855
1.68875,0.0310107
1.69,0.0041479
1.69125,-0.0179955
1.6925,-0.0287351
1.69375,-0.0354427
1.695,-0.0465745
1.69625,-0.0812845
1.6975,-0.0732807
1.69875,-0.0376527
1.7,-0.00709015
1.70125,0.0170785
1.7025,0.0288238
1.70375,0.0355314
1.705,0.0476734
1.70625,0.0827203
1.7075,0.0720177
1.70875,0.0313475
1.71,0.00448467
1.71125,-0.0180001
1.7125,-0.0283983
1.71375,-0.0354427
1.715,-0.0462377
1.71625,-0.0809478
1.7175,-0.0732761
1.71875,-0.0379941
1.72,-0.00708553
1.72125,0.0170785
1.7225,0.0288284
1.72375,0.0351946
1.725,0.0476734
1.72625,0.083057
1.7275,0.0723591
1.72875,0.0313475
1.73,0.00448005
1.73125,-0.0180001
1.7325,-0.0287351
1.73375,-0.0354427
1.735,-0.045901
1.73625,-0.0809478
1.7375,-0.0736128
1.73875,-0.0383263
1.74,-0.00742229
1.74125,0.0167417
1.7425,0.0288284
1.74375,0.0351946
1.745,0.0473367
1.74625,0.0827203
1.7475,0.0726958
1.74875,0.0316842
1.75,0.00481681
1.75125,-0.0176634
1.7525,-0.0283983
1.75375,-0.0354427
1.755,-0.045901
1.75625,-0.0809478
1.7575,-0.0739496
1.75875,-0.0383309
1.76,-0.00742229
1.76125,0.0167417
1.7625,0.028487
1.76375,0.0351946
1.765,0.0469999
1.76625,0.0823835
1.7675,0.0726912
1.76875,0.032021
1.77,0.00515358
1.77125,-0.0173266
1.7725,-0.0283983
1.77375,-0.0354427
1.775,-0.0455642
1.77625,-0.080611
1.7775,-0.0742864
1.77875,-0.038663
1.78,-0.00809583
1.78125,0.0167417
1.7825,0.028487
1.78375,0.0351946
1.785,0.0466631
1.78625,0.0823789
1.7875,0.073028
1.78875,0.0320164
1.79,0.00549035
1.79125,-0.0173266
1.7925,-0.028403
1.79375,-0.0351059
1.795,-0.0455642
1.79625,-0.0802742
1.7975,-0.0746231
1.79875,-0.038663
1.8,-0.00809121
1.80125,0.016405
1.8025,0.0284916
1.80375,0.0351946
1.805,0.0466631
1.80625,0.0820421
1.8075,0.0737015
1.80875,0.0323531
1.81,0.00515358
1.81125,-0.0173266
1.8125,-0.028403
1.81375,-0.0354473
1.815,-0.0452274
1.81625,-0.0799329
1.8175,-0.0746231
1.81875,-0.0389998
1.82,-0.00876936
1.82125,0.0164096
1.8225,0.0284916
1.82375,0.0351946
1.825,0.0463264
1.82625,0.0820421
1.8275,0.0737015
1.82875,0.0323531
1.83,0.00514896
1.83125,-0.0169898
1.8325,-0.028403
1.83375,-0.0354473
1.835,-0.0448907
1.83625,-0.0799375
1.8375,-0.0749553
1.83875,-0.0393366
1.84,-0.00876474
1.84125,0.0160682
1.8425,0.0284916
1.84375,0.0348578
1.845,0.0463264
1.84625,0.0820421
1.8475,0.0736969
1.84875,0.0326899
1.85,0.00548573
1.85125,-0.0169898
1.8525,-0.028403
1.85375,-0.0354473
1.855,-0.0445539
1.85625,-0.0799375
1.8575,-0.0752921
1.85875,-0.0393366
1.86,-0.0091015
1.86125,0.0160728
1.8625,0.0284916
1.86375,0.0351946
1.865,0.0459896
1.86625,0.0820421
1.8675,0.0740336
1.86875,0.0326899
1.87,0.00548573
1.87125,-0.0169945
1.8725,-0.028403
1.87375,-0.0354473
1.875,-0.0445539
1.87625,-0.0795961
1.8775,-0.0756288
1.87875,-0.0396733
1.88,-0.0091015
1.88125,0.0160728
1.8825,0.0284916
1.88375,0.0348578
1.885,0.0453115
1.88625,0.0813686
1.8875,0.0747072
1.88875,0.0330267
1.89,0.00615926
1.89125,-0.0169945
1.8925,-0.0280662
1.89375,-0.0354473
1.895,-0.0442171
1.89625,-0.0792593
1.8975,-0.0759656
1.89875,-0.0400101
1.9,-0.00943827
1.90125,0.0160728
1.9025,0.0281548
1.90375,0.0348578
1.905,0.0456528
1.90625,0.0813686
1.9075,0.0750439
1.90875,0.0333634
1.91,0.00615926
1.91125,-0.0166531
1.9125,-0.0277248
1.91375,-0.0351059
1.915,-0.0442171
1.91625,-0.0789226
1.9175,-0.0756242
1.91875,-0.0403469
1.92,-0.00943365
1.92125,0.0157361
1.9225,0.0281548
1.92375,0.0348578
1.925,0.0453161
1.92625,0.0810318
1.9275,0.0753807
1.92875,0.0337002
1.93,0.00615464
1.93125,-0.0166577
1.9325,-0.0280662
1.93375,-0.0351106
1.935,-0.0438804
1.93625,-0.0789226
1.9375,-0.075961
1.93875,-0.0403469
1.94,-0.00977042
1.94125,0.0157361
1.9425,0.0281548
1.94375,0.0348578
1.945,0.0449747
1.94625,0.0810318
1.9475,0.0757175
1.94875,0.034037
1.95,0.00649141
1.95125,-0.0163209
1.9525,-0.0280662
1.95375,-0.0351106
1.955,-0.0438804
1.95625,-0.0789226
1.9575,-0.0762977
1.95875,-0.0406836
1.96,-0.0101072
1.96125,0.0153993
1.9625,0.0278181
1.96375,0.0348578
1.965,0.0449793
1.96625,0.0810318
1.9675,0.0757129
1.96875,0.0340323
1.97,0.00682817
1.97125,-0.0163209
1.9725,-0.0280662
1.97375,-0.0351106
1.975,-0.0435436
1.97625,-0.0785858
1.9775,-0.0766345
1.97875,-0.0410204
1.98,-0.010444
1.98125,0.0153993
1.9825,0.0281548
1.98375,0.0348578
1.985,0.0443012
1.98625,0.0806951
1.9875,0.0760496
1.98875,0.0347105
1.99,0.00682817
1.99125,-0.0159842
1.9925,-0.0277294
1.99375,-0.0351106
1.995,-0.0435436
1.99625,-0.078249
1.9975,-0.0769713
1.99875,-0.0410204
2,-0.0107807
2.00125,0.0150625
2.0025,0.0278181
2.00375,0.0348578
2.005,0.0443012
2.00625,0.0803583
2.0075,0.0767232
2.00875,0.0347059
2.01,0.00716494
2.01125,-0.0159842
2.0125,-0.0277294
2.01375,-0.0351106
2.015,-0.0432068
2.01625,-0.078249
2.0175,-0.0769713
2.01875,-0.0413526
2.02,-0.0107807
2.02125,0.0150625
2.0225,0.0278181
2.02375,0.0345211
2.025,0.0439644
2.02625,0.0803583
2.0275,0.0770599
2.02875,0.0350473
2.03,0.00750171
2.03125,-0.0159842
2.0325,-0.0277294
2.03375,-0.0351106
2.035,-0.0432068
2.03625,-0.0779123
2.0375,-0.0776448
2.03875,-0.0413526
2.04,-0.0111129
2.04125,0.0154039
2.0425,0.0278181
2.04375,0.0345211
2.045,0.0436276
2.04625,0.0800215
2.0475,0.0767185
2.04875,0.0350426
2.05,0.00749709
2.05125,-0.0156474
2.0525,-0.0277294
2.05375,-0.0351106
2.055,-0.0428701
2.05625,-0.0779123
2.0575,-0.0773034
2.05875,-0.0416939
2.06,-0.0111129
2.06125,0.0150671
2.0625,0.0274813
2.06375,0.0345211
2.065,0.0439644
2.06625,0.0800215
2.0675,0.0773921
2.06875,0.0353794
2.07,0.00783385
2.07125,-0.0156474
2.0725,-0.0277294
2.07375,-0.0347738
2.075,-0.0428701
2.07625,-0.0775755
2.0775,-0.0779769
2.07875,-0.0420261
2.08,-0.0114496
2.08125,0.0150671
2.0825,0.0274813
2.08375,0.0341843
2.085,0.0432909
2.08625,0.0796848
2.0875,0.0773921
2.08875,0.0353794
2.09,0.00817062
2.09125,-0.0153106
2.0925,-0.0273927
2.09375,-0.0347738
2.095,-0.0428701
2.09625,-0.0772387
2.0975,-0.0779769
2.09875,-0.0423629
2.1,-0.0117864
2.10125,0.0147304
2.1025,0.0274813
2.10375,0.0345211
2.105,0.0432909
2.10625,0.0796848
2.1075,0.0777288
2.10875,0.0357162
2.11,0.00817062
2.11125,-0.0153153
2.1125,-0.0273927
2.11375,-0.0347738
2.115,-0.0425333
2.11625,-0.0772387
2.1175,-0.0783137
2.11875,-0.0423629
2.12,-0.0121232
2.12125,0.0147304
2.1225,0.0271445
2.12375,0.0345211
2.125,0.0432909
2.12625,0.079348
2.1275,0.0780656
2.12875,0.0360529
2.13,0.00850739
2.13125,-0.0153153
2.1325,-0.0273927
2.13375,-0.034437
2.135,-0.0421919
2.13625,-0.076902
2.1375,-0.0786505
2.13875,-0.0426996
2.14,-0.0124599
2.14125,0.0147304
2.1425,0.0271445
2.14375,0.0345257
2.145,0.0429541
2.14625,0.079348
2.1475,0.0784024
2.14875,0.0360529
2.15,0.00884415
2.15125,-0.0153153
2.1525,-0.0270559
2.15375,-0.034437
2.155,-0.0418551
2.15625,-0.0762284
2.1575,-0.0779723
2.15875,-0.0430364
2.16,-0.0124553
2.16125,0.0143936
2.1625,0.0274859
2.16375,0.0341889
2.165,0.0426173
2.16625,0.0790112
2.1675,0.0787391
2.16875,0.0367265
2.17,0.00883953
2.17125,-0.0149785
2.1725,-0.0270559
2.17375,-0.0341003
2.175,-0.0421965
2.17625,-0.0762284
2.1775,-0.0783091
2.17875,-0.0433732
2.18,-0.0127921
2.18125,0.0140568
2.1825,0.0271492
2.18375,0.0341889
2.185,0.0426173
2.18625,0.0786745
2.1875,0.0790759
2.18875,0.0367265
2.19,0.0091763
2.19125,-0.0149785
2.1925,-0.0270559
2.19375,-0.0341003
2.195,-0.0415184
2.19625,-0.0758917
2.1975,-0.0786459
2.19875,-0.0437099
2.2,-0.0131288
2.20125,0.0137201
2.2025,0.0271492
2.20375,0.0341889
2.205,0.0426173
2.20625,0.0783377
2.2075,0.0787345
2.20875,0.0370632
2.21,0.00951307
2.21125,-0.0146417
2.2125,-0.0270559
2.21375,-0.0341003
2.215,-0.0415184
2.21625,-0.0758917
2.2175,-0.0789826
2.21875,-0.0440467
2.22,-0.0134656
2.22125,0.0133833
2.2225,0.0271492
2.22375,0.0341889
2.225,0.0422806
2.22625,0.0783331
2.2275,0.0790713
2.22875,0.0370632
2.23,0.00951307
2.23125,-0.0146417
2.2325,-0.0270559
2.23375,-0.0341003
2.235,-0.0411816
2.23625,-0.0755503
2.2375,-0.0793194
2.23875,-0.0440467
2.24,-0.0131242
2.24125,0.0137247
2.2425,0.0271492
2.24375,0.0341889
2.245,0.0422806
2.24625,0.0779963
2.2475,0.0797448
2.24875,0.0377368
2.25,0.00984983
2.25125,-0.0146417
2.2525,-0.0270559
2.25375,-0.0341003
2.255,-0.0411816
2.25625,-0.0755503
2.2575,-0.0796562
2.25875,-0.0443835
2.26,-0.013461
2.26125,0.0137247
2.2625,0.0271492
2.26375,0.0341889
2.265,0.0419438
2.26625,0.0779963
2.2675,0.0797448
2.26875,0.0373954
2.27,0.0101866
2.27125,-0.0146417
2.2725,-0.0270559
2.27375,-0.0341003
2.275,-0.041523
2.27625,-0.0752181
2.2775,-0.0796562
2.27875,-0.0443835
2.28,-0.0137978
2.28125,0.0133879
2.2825,0.0268078
2.28375,0.0338475
2.285,0.041607
2.28625,0.0776595
2.2875,0.0800816
2.28875,0.0377322
2.29,0.010182
2.29125,-0.0143096
2.2925,-0.0270605
2.29375,-0.0337635
2.295,-0.0411816
2.29625,-0.0752135
2.2975,-0.0796515
2.29875,-0.0443788
2.3,-0.0137978
2.30125,0.0133879
2.3025,0.0268124
2.30375,0.0341889
2.305,0.041607
2.30625,0.0773228
2.3075,0.080077
2.30875,0.0384103
2.31,0.0105187
2.31125,-0.0143096
2.3125,-0.0270605
2.31375,-0.0337635
2.315,-0.0408448
2.31625,-0.07454
2.3175,-0.0799883
2.31875,-0.0447156
2.32,-0.0141345
2.32125,0.0130512
2.3225,0.0268124
2.32375,0.0338521
2.325,0.041607
2.32625,0.0773228
2.3275,0.0804137
2.32875,0.0384057
2.33,0.0105187
2.33125,-0.0143096
2.3325,-0.0270605
2.33375,-0.0337635
2.335,-0.0408448
2.33625,-0.07454
2.3375,-0.0803251
2.33875,-0.0450524
2.34,-0.0144713
2.34125,0.0130512
2.3425,0.0271492
2.34375,0.0338521
2.345,0.0412703
2.34625,0.076986
2.3475,0.0807505
2.34875,0.0387425
2.35,0.0108555
2.35125,-0.0139728
2.3525,-0.0270605
2.35375,-0.0337635
2.355,-0.0408448
2.35625,-0.0745446
2.3575,-0.0803251
2.35875,-0.0450524
2.36,-0.0148081
2.36125,0.0123776
2.3625,0.0268124
2.36375,0.0335154
2.365,0.0412703
2.36625,0.0766492
2.3675,0.0810873
2.36875,0.0390792
2.37,0.0111923
2.37125,-0.013636
2.3725,-0.0267191
2.37375,-0.0334267
2.375,-0.0405081
2.37625,-0.0742032
2.3775,-0.0809986
2.37875,-0.0457259
2.38,-0.0154816
2.38125,0.0127144
2.3825,0.0268124
2.38375,0.0335154
2.385,0.0409335
2.38625,0.0766492
2.3875,0.0810873
2.38875,0.0390792
2.39,0.0111877
2.39125,-0.0132993
2.3925,-0.0267237
2.39375,-0.0337681
2.395,-0.0405081
2.39625,-0.0738664
2.3975,-0.0806572
2.39875,-0.0457259
2.4,-0.0154816
2.40125,0.0123776
2.4025,0.0268124
2.40375,0.0335154
2.405,0.0409335
2.40625,0.0763125
2.4075,0.0810826
2.40875,0.0397528
2.41,0.0115244
2.41125,-0.013636
2.4125,-0.0267237
2.41375,-0.0337681
2.415,-0.0401713
2.41625,-0.0735297
2.4175,-0.080994
2.41875,-0.0460627
2.42,-0.015477
2.42125,0.0123776
2.4225,0.0264756
2.42375,0.0335154
2.425,0.0409335
2.42625,0.0759757
2.4275,0.0814194
2.42875,0.0400895
2.43,0.0115244
2.43125,-0.0132993
2.4325,-0.026387
2.43375,-0.0334313
2.435,-0.0401713
2.43625,-0.0731929
2.4375,-0.0813308
2.43875,-0.0463994
2.44,-0.0158137
2.44125,0.0120409
2.4425,0.0264756
2.44375,0.0335154
2.445,0.0409335
2.44625,0.0759757
2.4475,0.0817562
2.44875,0.0404263
2.45,0.0118612
2.45125,-0.0133039
2.4525,-0.026387
2.45375,-0.0334313
2.455,-0.0401713
2.45625,-0.0728561
2.4575,-0.0813308
2.45875,-0.0467362
2.46,-0.0161505
2.46125,0.0117041
2.4625,0.0264756
2.46375,0.0331786
2.465,0.0405967
2.46625,0.0756389
2.4675,0.0820929
2.46875,0.0400849
2.47,0.012198
2.47125,-0.0129625
2.4725,-0.026387
2.47375,-0.0334313
2.475,-0.0401713
2.47625,-0.0728561
2.4775,-0.0816675
2.47875,-0.047073
2.48,-0.0164873
2.48125,0.0120455
2.4825,0.0264756
2.48375,0.0331786
2.485,0.04026
2.48625,0.0753022
2.4875,0.0820929
2.48875,0.0404217
2.49,0.0125347
2.49125,-0.0129671
2.4925,-0.026387
2.49375,-0.0334313
2.495,-0.0398345
2.49625,-0.0728561
2.4975,-0.0820043
2.49875,-0.0474097
2.5,-0.016824
2.50125,0.0120455
2.5025,0.0264756
2.50375,0.0331786
2.505,0.04026
2.50625,0.0753022
2.5075,0.0824297
2.50875,0.0407584
2.51,0.0125347
2.51125,-0.0129671
2.5125,-0.026387
2.51375,-0.0334313
2.515,-0.0398345
2.51625,-0.0725194
2.5175,-0.0816675
2.51875,-0.0470683
2.52,-0.0171562
2.52125,0.0117087
2.5225,0.0261389
2.52375,0.0331786
2.525,0.04026
2.52625,0.074624
2.5275,0.0827665
2.52875,0.0410952
2.53,0.0128715
2.53125,-0.0126304
2.5325,-0.0260502
2.53375,-0.0334313
2.535,-0.0398345
2.53625,-0.0725194
2.5375,-0.0819997
2.53875,-0.0474051
2.54,-0.0171562
2.54125,0.011372
2.5425,0.0261389
2.54375,0.0331832
2.545,0.04026
2.54625,0.0746286
2.5475,0.0827619
2.54875,0.041432
2.55,0.0128669
2.55125,-0.0126304
2.5525,-0.0260502
2.55375,-0.0330946
2.555,-0.0398345
2.55625,-0.0721826
2.5575,-0.0819997
2.55875,-0.0477419
2.56,-0.0174929
2.56125,0.0110352
2.5625,0.0261389
2.56375,0.0331832
2.565,0.0395818
2.56625,0.0746286
2.5675,0.0827619
2.56875,0.0417687
2.57,0.0128669
2.57125,-0.0122936
2.5725,-0.026387
2.57375,-0.0330946
2.575,-0.0394978
2.57625,-0.0715091
2.5775,-0.0823364
2.57875,-0.0480786
2.58,-0.0178297
2.58125,0.0110352
2.5825,0.0261389
2.58375,0.0331832
2.585,0.0395818
2.58625,0.0739505
2.5875,0.0830986
2.58875,0.0417687
2.59,0.0135404
2.59125,-0.0122936
2.5925,-0.0260502
2.59375,-0.0330946
2.595,-0.0394978
2.59625,-0.0715091
2.5975,-0.0823364
2.59875,-0.0480786
2.6,-0.0178297
2.60125,0.0110398
2.6025,0.0258021
2.60375,0.0331832
2.605,0.039245
2.60625,0.0736137
2.6075,0.0830986
2.60875,0.0424423
2.61,0.0138772
2.61125,-0.0119568
2.6125,-0.0260502
2.61375,-0.0330946
2.615,-0.0394978
2.61625,-0.0711723
2.6175,-0.0826732
2.61875,-0.0484154
2.62,-0.0178297
2.62125,0.0110398
2.6225,0.0261435
2.62375,0.0331832
2.625,0.0395864
2.62625,0.0732769
2.6275,0.0834354
2.62875,0.0424423
2.63,0.0138772
2.63125,-0.0116201
2.6325,-0.0257134
2.63375,-0.0327578
2.635,-0.0394978
2.63625,-0.0711723
2.6375,-0.0826732
2.63875,-0.0487522
2.64,-0.0185032
2.64125,0.010703
2.6425,0.0258021
2.64375,0.0331832
2.645,0.0392497
2.64625,0.0732769
2.6475,0.0837722
2.64875,0.042779
2.65,0.0142139
2.65125,-0.0116201
2.6525,-0.0257134
2.65375,-0.0327578
2.655,-0.0394978
2.65625,-0.0708355
2.6575,-0.0826732
2.65875,-0.0490889
2.66,-0.0184986
2.66125,0.0103663
2.6625,0.0254653
2.66375,0.0328465
2.665,0.0389083
2.66625,0.0729402
2.6675,0.0837675
2.66875,0.0431158
2.67,0.0142139
2.67125,-0.0116247
2.6725,-0.0257134
2.67375,-0.0327578
2.675,-0.0388242
2.67625,-0.0701574
2.6775,-0.0830053
2.67875,-0.0494257
2.68,-0.0184986
2.68125,0.0103663
2.6825,0.0254653
2.68375,0.0328465
2.685,0.0385715
2.68625,0.0729402
2.6875,0.0841043
2.68875,0.0431158
2.69,0.0145461
2.69125,-0.0109512
2.6925,-0.0257134
2.69375,-0.0327578
2.695,-0.0388242
2.69625,-0.0701574
2.6975,-0.0833421
2.69875,-0.0497625
2.7,-0.0188354
2.70125,0.0100295
2.7025,0.0254653
2.70375,0.0328465
2.705,0.0389129
2.70625,0.0726034
2.7075,0.0841043
2.70875,0.0434526
2.71,0.0145461
2.71125,-0.0112879
2.7125,-0.0260548
2.71375,-0.0327624
2.715,-0.0388242
2.71625,-0.0698206
2.7175,-0.0833421
2.71875,-0.0497625
2.72,-0.0191722
2.72125,0.00969274
2.7225,0.0258067
2.72375,0.0328465
2.725,0.0385715
2.72625,0.0722666
2.7275,0.0844411
2.72875,0.0441261
2.73,0.0148828
2.73125,-0.0109512
2.7325,-0.0253767
2.73375,-0.032421
2.735,-0.0388242
2.73625,-0.0694839
2.7375,-0.0836789
2.73875,-0.0497579
2.74,-0.0195089
2.74125,0.00969736
2.7425,0.0254699
2.74375,0.0328465
2.745,0.0389129
2.74625,0.0722666
2.7475,0.0847778
2.74875,0.0441261
2.75,0.0148828
2.75125,-0.0106144
2.7525,-0.0253767
2.75375,-0.032421
2.755,-0.0388242
2.75625,-0.0691471
2.7575,-0.0836789
2.75875,-0.0500946
2.76,-0.0198457
2.76125,0.00936059
2.7625,0.0254699
2.76375,0.0328465
2.765,0.0382347
2.76625,0.0719299
2.7675,0.0851146
2.76875,0.0444582
2.77,0.0152196
2.77125,-0.0106144
2.7725,-0.0257181
2.77375,-0.0327624
2.775,-0.0384875
2.77625,-0.0688103
2.7775,-0.0840156
2.77875,-0.0504314
2.78,-0.0198411
2.78125,0.00936059
2.7825,0.0254699
2.78375,0.0328465
2.785,0.0382347
2.78625,0.0715931
2.7875,0.0847732
2.78875,0.044795
2.79,0.0155564
2.79125,-0.0102776
2.7925,-0.0253767
2.79375,-0.032421
2.795,-0.0384875
2.79625,-0.0681368
2.7975,-0.084011
2.79875,-0.0507682
2.8,-0.0205192
2.80125,0.00902383
2.8025,0.0251332
2.80375,0.0328511
2.805,0.0382394
2.80625,0.0712563
2.8075,0.08511
2.80875,0.0451318
2.81,0.0158931
2.81125,-0.0102776
2.8125,-0.0250399
2.81375,-0.032421
2.815,-0.0384828
2.81625,-0.0678
2.8175,-0.0836743
2.81875,-0.0511049
2.82,-0.0201778
2.82125,0.00868706
2.8225,0.0251332
2.82375,0.0328511
2.825,0.0385761
2.82625,0.0709196
2.8275,0.0854467
2.82875,0.0454685
2.83,0.0162299
2.83125,-0.00994085
2.8325,-0.0253813
2.83375,-0.0320843
2.835,-0.0384875
2.83625,-0.0678
2.8375,-0.084011
2.83875,-0.0514417
2.84,-0.0205146
2.84125,0.00868706
2.8425,0.0251332
2.84375,0.0328511
2.845,0.037898
2.84625,0.0705828
2.8475,0.0854467
2.84875,0.0458053
2.85,0.0162253
2.85125,-0.00960409
2.8525,-0.0250445
2.85375,-0.0320843
2.855,-0.0384875
2.85625,-0.0674633
2.8575,-0.0843478
2.85875,-0.0517785
2.86,-0.0208514
2.86125,0.00835029
2.8625,0.0247964
2.86375,0.0325143
2.865,0.037898
2.86625,0.070246
2.8675,0.0857835
2.86875,0.0461421
2.87,0.0162253
2.87125,-0.00960871
2.8725,-0.0250445
2.87375,-0.0324257
2.875,-0.0384875
2.87625,-0.0667897
2.8775,-0.0843478
2.87875,-0.0514371
2.88,-0.0211881
2.88125,0.00801353
2.8825,0.0247964
2.88375,0.0325143
2.885,0.037898
2.88625,0.0699093
2.8875,0.0857835
2.88875,0.0464788
2.89,0.0165621
2.89125,-0.00960871
2.8925,-0.0250445
2.89375,-0.0324257
2.895,-0.0384828
2.89625,-0.0667897
2.8975,-0.0843432
2.89875,-0.0521152
2.9,-0.0211881
2.90125,0.00835491
2.9025,0.0247964
2.90375,0.0325143
2.905,0.037898
2.90625,0.0695725
2.9075,0.0854421
2.90875,0.0468156
2.91,0.0168988
2.91125,-0.00927194
2.9125,-0.0250445
2.91375,-0.0324257
2.915,-0.0384875
2.91625,-0.066453
2.9175,-0.0846799
2.91875,-0.0521106
2.92,-0.0215249
2.92125,0.00801815
2.9225,0.0244596
2.92375,0.0325143
2.925,0.037898
2.92625,0.0692357
2.9275,0.0857789
2.92875,0.046811
2.93,0.0168988
2.93125,-0.00927656
2.9325,-0.0247078
2.93375,-0.0324257
2.935,-0.0384875
2.93625,-0.0661162
2.9375,-0.0846799
2.93875,-0.0527841
2.94,-0.0218571
2.94125,0.00768138
2.9425,0.024801
2.94375,0.0325143
2.945,0.0375612
2.94625,0.068899
2.9475,0.0861157
2.94875,0.0474845
2.95,0.0172356
2.95125,-0.00893517
2.9525,-0.0247078
2.95375,-0.0320889
2.955,-0.0384828
2.95625,-0.0657794
2.9575,-0.0846799
2.95875,-0.0527841
2.96,-0.0221938
2.96125,0.00734461
2.9625,0.0244596
2.96375,0.0325143
2.965,0.037898
2.96625,0.0685622
2.9675,0.0861157
2.96875,0.0478213
2.97,0.017231
2.97125,-0.00893979
2.9725,-0.0247078
2.97375,-0.0320889
2.975,-0.0384875
2.97625,-0.0654427
2.9775,-0.0850167
2.97875,-0.0534577
2.98,-0.0225306
2.98125,0.00734461
2.9825,0.0244596
2.98375,0.0325143
2.985,0.037898
2.98625,0.0682254
2.9875,0.0864524
2.98875,0.0478213
2.99,0.0175677
2.99125,-0.00860303
2.9925,-0.024371
2.99375,-0.0320889
2.995,-0.0381461
2.99625,-0.0651059
2.9975,-0.0850167
2.99875,-0.0537944
3,-0.0228674
3.00125,0.00700785
3.0025,0.0241229
3.00375,0.0321776
3.005,0.037898
3.00625,0.0675473
3.0075,0.0867892
3.00875,0.0484948
3.01,0.0179045
3.01125,-0.00860303
3.0125,-0.0240342
3.01375,-0.0317521
3.015,-0.0384875
3.01625,-0.0647691
3.0175,-0.0853535
3.01875,-0.0537944
3.02,-0.0228674
3.02125,0.00667108
3.0225,0.0241275
3.02375,0.0321776
3.025,0.037898
3.02625,0.0672105
3.0275,0.0867892
3.02875,0.0488316
3.03,0.0179045
3.03125,-0.00826626
3.0325,-0.0243756
3.03375,-0.0320889
3.035,-0.0378093
3.03625,-0.0637542
3.0375,-0.0853535
3.03875,-0.0541312
3.04,-0.0232041
3.04125,0.00667108
3.0425,0.0244643
3.04375,0.0321776
3.045,0.0375612
3.04625,0.0672105
3.0475,0.0867892
3.04875,0.0491684
3.05,0.0179045
3.05125,-0.00826626
3.0525,-0.0243756
3.05375,-0.0320889
3.055,-0.0378093
3.05625,-0.0640956
3.0575,-0.0850121
3.05875,-0.0541266
3.06,-0.0231995
3.06125,0.0066757
3.0625,0.0244643
3.06375,0.0321776
3.065,0.0375612
3.06625,0.066537
3.0675,0.0867892
3.06875,0.0495051
3.07,0.0182413
3.07125,-0.00792949
3.0725,-0.0243756
3.07375,-0.0320889
3.075,-0.0378093
3.07625,-0.0634174
3.0775,-0.0853489
3.07875,-0.0544633
3.08,-0.0231995
3.08125,0.0066757
3.0825,0.0241275
3.08375,0.0321776
3.085,0.0375612
3.08625,0.0665416
3.0875,0.0867892
3.08875,0.0498419
3.09,0.018578
3.09125,-0.00759273
3.0925,-0.0240388
3.09375,-0.0317521
3.095,-0.0378093
3.09625,-0.0630807
3.0975,-0.0853489
3.09875,-0.0548001
3.1,-0.0235363
3.10125,0.00600217
3.1025,0.0237907
3.10375,0.0318408
3.105,0.0375612
3.10625,0.0662002
3.1075,0.0867846
3.10875,0.0501787
3.11,0.0189148
3.11125,-0.00725596
3.1125,-0.0240388
3.11375,-0.0317521
3.115,-0.0378093
3.11625,-0.0630807
3.1175,-0.0853489
3.11875,-0.0551369
3.12,-0.023873
3.12125,0.00600217
3.1225,0.0237907
3.12375,0.0318408
3.125,0.0372198
3.12625,0.0655267
3.1275,0.0867846
3.12875,0.0505108
3.13,0.0185734
3.13125,-0.00759735
3.1325,-0.0240388
3.13375,-0.0317521
3.135,-0.0378093
3.13625,-0.0627439
3.1375,-0.0853489
3.13875,-0.0554736
3.14,-0.0245512
3.14125,0.0056654
3.1425,0.023454
3.14375,0.0318408
3.145,0.0375612
3.14625,0.0651899
3.1475,0.0867846
3.14875,0.0508476
3.15,0.0189102
3.15125,-0.00726058
3.1525,-0.0240388
3.15375,-0.0320935
3.155,-0.0378093
3.15625,-0.0627485
3.1575,-0.0853489
3.15875,-0.0558104
3.16,-0.0245466
3.16125,0.0056654
3.1625,0.023454
3.16375,0.0318408
3.165,0.0372198
3.16625,0.0648532
3.1675,0.0871213
3.16875,0.0511843
3.17,0.0189102
3.17125,-0.00726058
3.1725,-0.0237021
3.17375,-0.0317568
3.175,-0.0378093
3.17625,-0.0617336
3.1775,-0.0856856
3.17875,-0.0561472
3.18,-0.0248833
3.18125,0.00532864
3.1825,0.023454
3.18375,0.0318408
3.185,0.0372244
3.18625,0.0645164
3.1875,0.0867846
3.18875,0.0515211
3.19,0.0195837
3.19125,-0.00692381
3.1925,-0.0237021
3.19375,-0.0317568
3.195,-0.0378093
3.19625,-0.0617336
3.1975,-0.0856856
3.19875,-0.0561426
3.2,-0.0248833
3.20125,0.00533326
3.2025,0.0231172
3.20375,0.031504
3.205,0.0372244
3.20625,0.0641796
3.2075,0.0871213
3.20875,0.0518579
3.21,0.0195837
3.21125,-0.00658705
3.2125,-0.0233653
3.21375,-0.0314154
3.215,-0.0378093
3.21625,-0.0610601
3.2175,-0.085681
3.21875,-0.0568207
3.22,-0.0252201
3.22125,0.00533326
3.2225,0.0231172
3.22375,0.0318454
3.225,0.0372198
3.22625,0.0638429
3.2275,0.08678
3.22875,0.0521946
3.23,0.0199205
3.23125,-0.00658705
3.2325,-0.0233653
3.23375,-0.03142
3.235,-0.0378093
3.23625,-0.0610601
3.2375,-0.085681
3.23875,-0.0571529
3.24,-0.0255569
3.24125,0.00499649
3.2425,0.0231172
3.24375,0.031504
3.245,0.0372198
3.24625,0.0635061
3.2475,0.08678
3.24875,0.0528682
3.25,0.0202573
3.25125,-0.0062549
3.2525,-0.0230285
3.25375,-0.03142
3.255,-0.0378093
3.25625,-0.0607233
3.2575,-0.085681
3.25875,-0.0571529
3.26,-0.0255522
3.26125,0.00465972
3.2625,0.0227804
3.26375,0.0318454
3.265,0.0375612
3.26625,0.0631693
3.2675,0.0871167
3.26875,0.0528636
3.27,0.0202526
3.27125,-0.0062549
3.2725,-0.0233699
3.27375,-0.03142
3.275,-0.0378093
3.27625,-0.0603865
3.2775,-0.085681
3.27875,-0.0578264
3.28,-0.025889
3.28125,0.00432296
3.2825,0.0231218
3.28375,0.0318454
3.285,0.0372198
3.28625,0.0628326
3.2875,0.0871167
3.28875,0.0532003
3.29,0.0205894
3.29125,-0.00591813
3.2925,-0.0230285
3.29375,-0.0310786
3.295,-0.0378093
3.29625,-0.0600498
3.2975,-0.085681
3.29875,-0.0581632
3.3,-0.025889
3.30125,0.00398619
3.3025,0.0227851
3.30375,0.0318454
3.305,0.0372244
3.30625,0.0624958
3.3075,0.0871167
3.30875,0.0535371
3.31,0.0209308
3.31125,-0.00591813
3.3125,-0.0226918
3.31375,-0.0307418
3.315,-0.0378093
3.31625,-0.059713
3.3175,-0.085681
3.31875,-0.0581632
3.32,-0.0262258
3.32125,0.00399081
3.3225,0.0227851
3.32375,0.0315086
3.325,0.0372198
3.32625,0.062159
3.3275,0.0871167
3.32875,0.0538739
3.33,0.0209262
3.33125,-0.00558137
3.3325,-0.0226918
3.33375,-0.0310832
3.335,-0.0374725
3.33625,-0.0593762
3.3375,-0.0853396
3.33875,-0.0588367
3.34,-0.0265625
3.34125,0.00399081
3.3425,0.0227851
3.34375,0.0315086
3.345,0.0372198
3.34625,0.062159
3.3475,0.0874535
3.34875,0.0545474
3.35,0.0209262
3.35125,-0.0052446
3.3525,-0.0230332
3.35375,-0.0310832
3.355,-0.0374679
3.35625,-0.0590395
3.3575,-0.085681
3.35875,-0.0588321
3.36,-0.0268993
3.36125,0.00365404
3.3625,0.0224483
3.36375,0.0315086
3.365,0.036883
3.36625,0.0614855
3.3675,0.0874535
3.36875,0.0548842
3.37,0.0212629
3.37125,-0.0052446
3.3725,-0.0230332
3.37375,-0.0310832
3.375,-0.0374679
3.37625,-0.0587027
3.3775,-0.0853396
3.37875,-0.0588321
3.38,-0.0268993
3.38125,0.00331728
3.3825,0.0224483
3.38375,0.0311719
3.385,0.036883
3.38625,0.0611487
3.3875,0.0874535
3.38875,0.0552209
3.39,0.0215997
3.39125,-0.00524922
3.3925,-0.0226964
3.39375,-0.0310832
3.395,-0.0374679
3.39625,-0.0583659
3.3975,-0.0856764
3.39875,-0.0595056
3.4,-0.0272315
3.40125,0.00298051
3.4025,0.0221115
3.40375,0.0311719
3.405,0.036883
3.40625,0.0611487
3.4075,0.0871167
3.40875,0.0555531
3.41,0.0219365
3.41125,-0.00491245
3.4125,-0.0226964
3.41375,-0.0310832
3.415,-0.0374679
3.41625,-0.0580292
3.4175,-0.0853396
3.41875,-0.0595056
3.42,-0.0272315
3.42125,0.00264374
3.4225,0.0221115
3.42375,0.0311719
3.425,0.036883
3.42625,0.060812
3.4275,0.0867753
3.42875,0.0558898
3.43,0.0222732
3.43125,-0.00491245
3.4325,-0.0226964
3.43375,-0.0310832
3.435,-0.0374679
3.43625,-0.0576924
3.4375,-0.0850028
3.43875,-0.0601791
3.44,-0.0275682
3.44125,0.00264374
3.4425,0.0221115
3.44375,0.0308351
3.445,0.036883
3.44625,0.0604752
3.4475,0.0864386
3.44875,0.0565634
3.45,0.02261
3.45125,-0.00457569
3.4525,-0.0223596
3.45375,-0.0307465
3.455,-0.0371312
3.45625,-0.0576924
3.4575,-0.0850028
3.45875,-0.0601745
3.46,-0.027905
3.46125,0.00264836
3.4625,0.0221115
3.46375,0.0308351
3.465,0.0365463
3.46625,0.0601384
3.4675,0.0867753
3.46875,0.0565634
3.47,0.0222686
3.47125,-0.00390216
3.4725,-0.0223596
3.47375,-0.0304097
3.475,-0.0371312
3.47625,-0.0573556
3.4775,-0.0853396
3.47875,-0.0608527
3.48,-0.0282418
3.48125,0.0023116
3.4825,0.0217748
3.48375,0.0311765
3.485,0.0365463
3.48625,0.0598017
3.4875,0.0867753
3.48875,0.0572369
3.49,0.0226054
3.49125,-0.00390216
3.4925,-0.0223596
3.49375,-0.0304097
3.495,-0.0371312
3.49625,-0.0570143
3.4975,-0.0853396
3.49875,-0.0605113
3.5,-0.0285785
3.50125,0.00197483
3.5025,0.0217794
3.50375,0.0311765
3.505,0.0365463
3.50625,0.0598017
3.5075,0.0871121
3.50875,0.0572369
3.51,0.0226054
3.51125,-0.00356539
3.5125,-0.0220229
3.51375,-0.0307465
3.515,-0.0371312
3.51625,-0.0566821
3.5175,-0.0856718
3.51875,-0.0611848
3.52,-0.0285785
3.52125,0.00197483
3.5225,0.0217794
3.52375,0.0311765
3.525,0.036883
3.52625,0.0591281
3.5275,0.0871121
3.52875,0.0579104
3.53,0.0229421
3.53125,-0.00356539
3.5325,-0.0216861
3.53375,-0.0304097
3.535,-0.0371312
3.53625,-0.0566821
3.5375,-0.085335
3.53875,-0.0615216
3.54,-0.0289153
3.54125,0.00163806
3.5425,0.0217794
3.54375,0.0311765
3.545,0.036883
3.54625,0.0587914
3.5475,0.0871121
3.54875,0.0582472
3.55,0.0232789
3.55125,-0.00357001
3.5525,-0.0216861
3.55375,-0.0304097
3.555,-0.0371312
3.55625,-0.0563453
3.5575,-0.085335
3.55875,-0.0615216
3.56,-0.0292521
3.56125,0.0013013
3.5625,0.0217794
3.56375,0.0308397
3.565,0.036883
3.56625,0.0587914
3.5675,0.0867707
3.56875,0.0582426
3.57,0.0236157
3.57125,-0.00357001
3.5725,-0.0220275
3.57375,-0.0304097
3.575,-0.0367944
3.57625,-0.0560086
3.5775,-0.085335
3.57875,-0.0621951
3.58,-0.0295888
3.58125,0.000964531
3.5825,0.0217794
3.58375,0.0308397
3.585,0.036883
3.58625,0.0584546
3.5875,0.0867707
3.58875,0.0585793
3.59,0.0236157
3.59125,-0.00289648
3.5925,-0.0213493
3.59375,-0.0304097
3.595,-0.0371312
3.59625,-0.0556718
3.5975,-0.085335
3.59875,-0.0625319
3.6,-0.0299256
3.60125,0.000969151
3.6025,0.0214426
3.60375,0.0308397
3.605,0.0365463
3.60625,0.0574397
3.6075,0.0867707
3.60875,0.0592529
3.61,0.0239524
3.61125,-0.00289648
3.6125,-0.0216907
3.61375,-0.0304097
3.615,-0.0367944
3.61625,-0.055335
3.6175,-0.0849982
3.61875,-0.0628687
3.62,-0.029921
3.62125,0.000632384
3.6225,0.0211058
3.62375,0.0308397
3.625,0.036883
3.62625,0.0577811
3.6275,0.0867707
3.62875,0.0595896
3.63,0.0242892
3.63125,-0.00255971
3.6325,-0.0216907
3.63375,-0.0304143
3.635,-0.0367944
3.63625,-0.055335
3.6375,-0.085335
3.63875,-0.062864
3.64,-0.029921
3.64125,0.000632384
3.6425,0.0211058
3.64375,0.0304983
3.645,0.0365463
3.64625,0.0571029
3.6475,0.0864339
3.64875,0.0599218
3.65,0.0239478
3.65125,-0.0029011
3.6525,-0.021354
3.65375,-0.0304097
3.655,-0.0371312
3.65625,-0.0546615
3.6575,-0.0849982
3.65875,-0.0632008
3.66,-0.0302577
3.66125,0.000295618
3.6625,0.0207691
3.66375,0.030503
3.665,0.0365463
3.66625,0.0564294
3.6675,0.0867707
3.66875,0.0605999
3.67,0.024626
3.67125,-0.00256433
3.6725,-0.021354
3.67375,-0.0300729
3.675,-0.0367944
3.67625,-0.0546615
3.6775,-0.0849982
3.67875,-0.0635376
3.68,-0.0305945
3.68125,-4.11489e-05
3.6825,0.0207691
3.68375,0.030503
3.685,0.0365463
3.68625,0.0560926
3.6875,0.0864339
3.68875,0.0605953
3.69,0.0246214
3.69125,-0.00222756
3.6925,-0.021354
3.69375,-0.0304143
3.695,-0.0367944
3.69625,-0.053988
3.6975,-0.0849982
3.69875,-0.0638743
3.7,-0.0309313
3.70125,0.000300238
3.7025,0.0207691
3.70375,0.030503
3.705,0.0365463
3.70625,0.0560926
3.7075,0.0864339
3.70875,0.0609321
3.71,0.0246214
3.71125,-0.0018908
3.7125,-0.0210172
3.71375,-0.0304143
3.715,-0.0367944
3.71625,-0.053988
3.7175,-0.0849982
3.71875,-0.0645479
3.72,-0.031268
3.72125,-3.65285e-05
3.7225,0.0204323
3.72375,0.030503
3.725,0.0365463
3.72625,0.0554191
3.7275,0.0864339
3.72875,0.0616056
3.73,0.0252949
3.73125,-0.00223218
3.7325,-0.0213586
3.73375,-0.0304143
3.735,-0.0367944
3.73625,-0.0536512
3.7375,-0.0849982
3.73875,-0.0648846
3.74,-0.0316048
3.74125,-0.000373295
3.7425,0.0207737
3.74375,0.030503
3.745,0.0365463
3.74625,0.0554191
3.7475,0.0864339
3.74875,0.0619424
3.75,0.0252949
3.75125,-0.00189542
3.7525,-0.0213586
3.75375,-0.0300775
3.755,-0.0367944
3.75625,-0.0533144
3.7575,-0.0849982
3.75875,-0.06488
3.76,-0.0316048
3.76125,-0.000710062
3.7625,0.0204369
3.76375,0.0301662
3.765,0.0365463
3.76625,0.0550823
3.7675,0.0864339
3.76875,0.0626159
3.77,0.0256317
3.77125,-0.00122188
3.7725,-0.0210218
3.77375,-0.0300775
3.775,-0.0367944
3.77625,-0.0529777
3.7775,-0.0846615
3.77875,-0.0652168
3.78,-0.0319416
3.78125,-0.000710062
3.7825,0.0207737
3.78375,0.030503
3.785,0.0365463
3.78625,0.0547455
3.7875,0.0864339
3.78875,0.0622745
3.79,0.0259684
3.79125,-0.00122188
3.7925,-0.020685
3.79375,-0.0300775
3.795,-0.0367944
3.79625,-0.0526363
3.7975,-0.0843201
3.79875,-0.0655535
3.8,-0.0319369
3.80125,-0.00104683
3.8025,0.0201002
3.80375,0.0301662
3.805,0.0365463
3.80625,0.0544088
3.8075,0.0864339
3.80875,0.0629481
3.81,0.0263052
3.81125,-0.000885117
3.8125,-0.020685
3.81375,-0.0300775
3.815,-0.0364576
3.81625,-0.0526409
3.8175,-0.0843201
3.81875,-0.0658903
3.82,-0.0326151
3.82125,-0.00172036
3.8225,0.0201002
3.82375,0.0301662
3.825,0.0365463
3.82625,0.0544088
3.8275,0.0864293
3.82875,0.0632848
3.83,0.0263052
3.83125,-0.00054835
3.8325,-0.020685
3.83375,-0.0297408
3.835,-0.0364576
3.83625,-0.0523041
3.8375,-0.0843201
3.83875,-0.0662271
3.84,-0.0326105
3.84125,-0.00137897
3.8425,0.0201002
3.84375,0.0301662
3.845,0.0362095
3.84625,0.0537352
3.8475,0.0864293
3.84875,0.063963
3.85,0.026642
3.85125,-0.000211583
3.8525,-0.020685
3.85375,-0.0297408
3.855,-0.0364576
3.85625,-0.051626
3.8575,-0.0843201
3.85875,-0.0662271
3.86,-0.0326105
3.86125,-0.00171574
3.8625,0.0201002
3.86375,0.0301662
3.865,0.0365463
3.86625,0.0540766
3.8675,0.0864293
3.86875,0.0639584
3.87,0.0263006
3.87125,-0.000211583
3.8725,-0.0203483
3.87375,-0.0297408
3.875,-0.0364576
3.87625,-0.0512892
3.8775,-0.0843201
3.87875,-0.0662225
3.88,-0.0329472
3.88125,-0.00205251
3.8825,0.0197634
3.88375,0.0301662
3.885,0.0362095
3.88625,0.0533985
3.8875,0.0864293
3.88875,0.0639584
3.89,0.0266373
3.89125,-0.000216204
3.8925,-0.0203483
3.89375,-0.0297408
3.895,-0.0364576
3.89625,-0.0509525
3.8975,-0.0843201
3.89875,-0.066896
3.9,-0.0329472
3.90125,-0.00238927
3.9025,0.0197634
3.90375,0.0298294
3.905,0.0358727
3.90625,0.0530617
3.9075,0.0860926
3.90875,0.0649687
3.91,0.0269741
3.91125,0.000120563
3.9125,-0.0203483
3.91375,-0.0297408
3.915,-0.0364576
3.91625,-0.0509525
3.9175,-0.0846568
3.91875,-0.0672328
3.92,-0.033284
3.92125,-0.00238465
3.9225,0.0194266
3.92375,0.0298294
3.925,0.0358681
3.92625,0.0527249
3.9275,0.0860926
3.92875,0.0653054
3.93,0.0269741
3.93125,0.000457329
3.9325,-0.0200115
3.93375,-0.0297408
3.935,-0.0364576
3.93625,-0.0506157
3.9375,-0.0843201
3.93875,-0.0675695
3.94,-0.0336208
3.94125,-0.00272142
3.9425,0.0194266
3.94375,0.0298294
3.945,0.0358727
3.94625,0.0523882
3.9475,0.0857558
3.94875,0.0653008
3.95,0.0273109
3.95125,0.000794096
3.9525,-0.0200115
3.95375,-0.0297408
3.955,-0.0364576
3.95625,-0.0506157
3.9575,-0.0839833
3.95875,-0.0675695
3.96,-0.0339575
3.96125,-0.00339495
3.9625,0.0194312
3.96375,0.0294927
3.965,0.0355314
3.96625,0.0520514
3.9675,0.0860926
3.96875,0.0659743
3.97,0.0276476
3.97125,0.000794096
3.9725,-0.0200115
3.97375,-0.029404
3.975,-0.0364576
3.97625,-0.0499422
3.9775,-0.0839833
3.97875,-0.0682431
3.98,-0.0339575
3.98125,-0.00339495
3.9825,0.0194312
3.98375,0.0294927
3.985,0.0355314
3.98625,0.0517146
3.9875,0.0857558
3.98875,0.0659743
3.99,0.0279844
3.99125,0.000789476
3.9925,-0.0196747
3.99375,-0.029404
3.995,-0.0361209
3.99625,-0.0496054
3.9975,-0.0839833
3.99875,-0.0685798
4,-0.0342943
4.00125,-0.00373172
4.0025,0.0194312
4.00375,0.0294927
4.005,0.0355314
4.00625,0.0517146
4.0075,0.0854144
4.00875,0.0666479
4.01,0.0279844
4.01125,0.00112624
4.0125,-0.0196794
4.01375,-0.029404
4.015,-0.0361209
4.01625,-0.0496054
4.0175,-0.0836419
4.01875,-0.0685752
4.02,-0.0342897
4.02125,-0.00406849
4.0225,0.0190945
4.02375,0.0294927
4.025,0.0358727
4.02625,0.0513779
4.0275,0.0857512
4.02875,0.0669846
4.03,0.0283212
4.03125,0.00146301
4.0325,-0.0196794
4.03375,-0.029404
4.035,-0.0361209
4.03625,-0.0489319
4.0375,-0.0836419
4.03875,-0.068912
4.04,-0.0346311
4.04125,-0.00440525
4.0425,0.0190945
4.04375,0.0294927
4.045,0.0355314
4.04625,0.0510411
4.0475,0.0854144
4.04875,0.06698
4.05,0.0283166
4.05125,0.00179978
4.0525,-0.0193426
4.05375,-0.0290672
4.055,-0.0361209
4.05625,-0.0489319
4.0575,-0.0836419
4.05875,-0.0692487
4.06,-0.0349678
4.06125,-0.00440063
4.0625,0.0187577
4.06375,0.0298341
4.065,0.0355314
4.06625,0.0507043
4.0675,0.0854144
4.06875,0.0676536
4.07,0.0286579
4.07125,0.00213192
4.0725,-0.0193426
4.07375,-0.0290672
4.075,-0.0361209
4.07625,-0.0485951
4.0775,-0.0836419
4.07875,-0.0695855
4.08,-0.0349632
4.08125,-0.0047374
4.0825,0.0187577
4.08375,0.0294973
4.085,0.0355314
4.08625,0.0507043
4.0875,0.0850776
4.08875,0.0679903
4.09,0.0289947
4.09125,0.00247331
4.0925,-0.0193426
4.09375,-0.0290672
4.095,-0.0361209
4.09625,-0.0482583
4.0975,-0.0833051
4.09875,-0.0699177
4.1,-0.0353
4.10125,-0.00507417
4.1025,0.018421
4.10375,0.0294973
4.105,0.0358727
4.10625,0.0503676
4.1075,0.0847409
4.10875,0.0686639
4.11,0.0293315
4.11125,0.00246869
4.1125,-0.0190058
4.11375,-0.0294086
4.115,-0.0357795
4.11625,-0.0482583
4.1175,-0.0829684
4.11875,-0.0702544
4.12,-0.0356368
4.12125,-0.00541093
4.1225,0.0180842
4.12375,0.0294973
4.125,0.0355314
4.12625,0.049694
4.1275,0.0847409
4.12875,0.0686592
4.13,0.0293269
4.13125,0.00280546
4.1325,-0.0190058
4.13375,-0.0294086
4.135,-0.0357795
4.13625,-0.0479216
4.1375,-0.0829684
4.13875,-0.0705912
4.14,-0.0359735
4.14125,-0.00540631
4.1425,0.0180842
4.14375,0.0294973
4.145,0.0355314
4.14625,0.049694
4.1475,0.0847409
4.14875,0.068996
4.15,0.0293269
4.15125,0.00280546
4.1525,-0.0190058
4.15375,-0.0290719
4.155,-0.0354427
4.15625,-0.0479216
4.1575,-0.0826316
4.15875,-0.070928
4.16,-0.0363103
4.16125,-0.00574308
4.1625,0.0180888
4.16375,0.0291605
4.165,0.0355314
4.16625,0.0493573
4.1675,0.0847409
4.16875,0.0693328
4.17,0.0296636
4.17125,0.00314222
4.1725,-0.0186691
4.17375,-0.0290719
4.175,-0.0354427
4.17625,-0.0475848
4.1775,-0.0826316
4.17875,-0.0712647
4.18,-0.0363103
4.18125,-0.00607985
4.1825,0.0180888
4.18375,0.0291605
4.185,0.035536
4.18625,0.0490205
4.1875,0.0847409
4.18875,0.0696695
4.19,0.0300004
4.19125,0.00347899
4.1925,-0.0183323
4.19375,-0.0290719
4.195,-0.0357841
4.19625,-0.0475848
4.1975,-0.0826316
4.19875,-0.0712601
4.2,-0.0366471
4.20125,-0.00641661
4.2025,0.0180888
4.20375,0.0291605
4.205,0.0351946
4.20625,0.0486837
4.2075,0.0844041
4.20875,0.0703431
4.21,0.0300004
4.21125,0.00347437
4.2125,-0.0183323
4.21375,-0.0290719
4.215,-0.0357841
4.21625,-0.0469113
4.2175,-0.0822948
4.21875,-0.0715969
4.22,-0.0369838
4.22125,-0.00641661
4.2225,0.017752
4.22375,0.0291605
4.225,0.0351946
4.22625,0.0486837
4.2275,0.0840673
4.22875,0.0703385
4.23,0.0303372
4.23125,0.00347437
4.2325,-0.0183323
4.23375,-0.0290719
4.235,-0.0357841
4.23625,-0.0469113
4.2375,-0.0822948
4.23875,-0.0719336
4.24,-0.0373206
4.24125,-0.00675338
4.2425,0.017752
4.24375,0.0288238
4.245,0.0351946
4.24625,0.048347
4.2475,0.0840673
4.24875,0.0710166
4.25,0.0306739
4.25125,0.0041479
4.2525,-0.0183369
4.25375,-0.0290719
4.255,-0.0357841
4.25625,-0.0469113
4.2575,-0.0822948
4.25875,-0.0722704
4.26,-0.037316
4.26125,-0.00674876
4.2625,0.0174153
4.26375,0.0288238
4.265,0.0351946
4.26625,0.0480102
4.2675,0.0837306
4.26875,0.071012
4.27,0.0306739
4.27125,0.0041479
4.2725,-0.0183369
4.27375,-0.0287351
4.275,-0.0354473
4.27625,-0.0462377
4.2775,-0.0819581
4.27875,-0.0726072
4.28,-0.0376574
4.28125,-0.00708553
4.2825,0.0174153
4.28375,0.0288238
4.285,0.0351946
4.28625,0.0476734
4.2875,0.0833892
4.28875,0.0713488
4.29,0.0310107
4.29125,0.00448005
4.2925,-0.0180001
4.29375,-0.0287351
4.295,-0.0357841
4.29625,-0.0462377
4.2975,-0.0816167
4.29875,-0.0732807
4.3,-0.0376527
4.30125,-0.00742229
4.3025,0.0170785
4.30375,0.0291651
4.305,0.035536
4.30625,0.0476734
4.3075,0.0837306
4.30875,0.0720223
4.31,0.0313475
4.31125,0.00481681
4.3125,-0.0176634
4.31375,-0.0283983
4.315,-0.0354473
4.31625,-0.0462377
4.3175,-0.0812799
4.31875,-0.0732761
4.32,-0.0379895
4.32125,-0.00742229
4.3225,0.0167417
4.32375,0.0288238
4.325,0.0351946
4.32625,0.0469999
4.3275,0.0833938
4.32875,0.0723591
4.33,0.0313428
4.33125,0.00481681
4.3325,-0.0176634
4.33375,-0.0283983
4.335,-0.0354473
4.33625,-0.045901
4.3375,-0.0812799
4.33875,-0.0736128
4.34,-0.0379895
4.34125,-0.00741767
4.3425,0.0167417
4.34375,0.0288284
4.345,0.0351946
4.34625,0.0469999
4.3475,0.0833938
4.34875,0.0726958
4.35,0.032021
4.35125,0.00515358
4.3525,-0.0173266
4.35375,-0.0283983
4.355,-0.0354473
4.35625,-0.0455642
4.3575,-0.0809432
4.35875,-0.0739496
4.36,-0.0383263
4.36125,-0.00775444
4.3625,0.0170831
4.36375,0.0288284
4.365,0.0351946
4.36625,0.0466631
4.3675,0.0827156
4.36875,0.0730326
4.37,0.032021
4.37125,0.00515358
4.3725,-0.0173266
4.37375,-0.0283983
4.375,-0.0354473
4.37625,-0.0452274
4.3775,-0.0806064
4.37875,-0.0742864
4.38,-0.038663
4.38125,-0.00809121
4.3825,0.0167464
4.38375,0.0288284
4.385,0.0351946
4.38625,0.0463264
4.3875,0.0827156
4.38875,0.073028
4.39,0.0323578
4.39125,0.00549035
4.3925,-0.0173266
4.39375,-0.0283983
4.395,-0.0354473
4.39625,-0.0448907
4.3975,-0.0806064
4.39875,-0.0742818
4.4,-0.0389998
4.40125,-0.00842797
4.4025,0.0164096
4.40375,0.0288284
4.405,0.0351992
4.40625,0.0463264
4.4075,0.0827156
4.40875,0.0737015
4.41,0.0326945
4.41125,0.00549035
4.4125,-0.0169898
4.41375,-0.0283983
4.415,-0.0354473
4.41625,-0.0445539
4.4175,-0.0802696
4.41875,-0.0746231
4.42,-0.0389998
4.42125,-0.00876474
4.4225,0.0164096
4.42375,0.0288284
4.425,0.0351992
4.42625,0.0459896
4.4275,0.0823789
4.42875,0.0740383
4.43,0.0326899
4.43125,0.00582249
4.4325,-0.0166531
4.43375,-0.0280616
4.435,-0.0351059
4.43625,-0.0445539
4.4375,-0.0802696
4.43875,-0.0749553
4.44,-0.0393366
4.44125,-0.0091015
4.4425,0.0160728
4.44375,0.0284916
4.445,0.0348578
4.44625,0.0456528
4.4475,0.0823789
4.44875,0.074375
4.45,0.0330267
4.45125,0.00582249
4.4525,-0.0169945
4.45375,-0.0280616
4.455,-0.0354473
4.45625,-0.0442171
4.4575,-0.0799329
4.45875,-0.0749553
4.46,-0.0396733
4.46125,-0.00943827
4.4625,0.0160728
4.46375,0.0284916
4.465,0.0351992
4.46625,0.0453161
4.4675,0.0820421
4.46875,0.0747118
4.47,0.0330267
4.47125,0.00615926
4.4725,-0.0166531
4.47375,-0.0280616
4.475,-0.0351106
4.47625,-0.0442171
4.4775,-0.0799329
4.47875,-0.0752921
4.48,-0.0400101
4.48125,-0.00943365
4.4825,0.0157361
4.48375,0.0284916
4.485,0.0351992
4.48625,0.0453161
4.4875,0.0820421
4.48875,0.0747072
4.49,0.0333634
4.49125,0.00649603
4.4925,-0.0166577
4.49375,-0.0280616
4.495,-0.0347692
4.49625,-0.0438804
4.4975,-0.0795961
4.49875,-0.0756288
4.5,-0.0400055
4.50125,-0.00977042
4.5025,0.0157361
4.50375,0.0284916
4.505,0.0351992
4.50625,0.0453161
4.5075,0.0820421
4.50875,0.0750439
4.51,0.0337002
4.51125,0.00683279
4.5125,-0.0166577
4.51375,-0.0277248
4.515,-0.0351059
4.51625,-0.0435436
4.5175,-0.0792593
4.51875,-0.0759656
4.52,-0.0400055
4.52125,-0.0101072
4.5225,0.0157407
4.52375,0.0284916
4.525,0.0351992
4.52625,0.0449793
4.5275,0.0817054
4.52875,0.0753807
4.53,0.034037
4.53125,0.00716956
4.5325,-0.0163209
4.53375,-0.0277248
4.535,-0.0351059
4.53625,-0.0435436
4.5375,-0.0792593
4.53875,-0.075961
4.54,-0.0403423
4.54125,-0.0101072
4.5425,0.0157407
4.54375,0.0281548
4.545,0.0351992
4.54625,0.0446425
4.5475,0.0813686
4.54875,0.0757175
4.55,0.0343737
4.55125,0.00716494
4.5525,-0.0159842
4.55375,-0.0277248
4.555,-0.0347692
4.55625,-0.0435436
4.5575,-0.0789226
4.55875,-0.0762977
4.56,-0.040679
4.56125,-0.010444
4.5625,0.0157407
4.56375,0.0278181
4.565,0.0348578
4.56625,0.0446425
4.5675,0.0810318
4.56875,0.0760542
4.57,0.0343737
4.57125,0.00716494
4.5725,-0.0159842
4.57375,-0.0277294
4.575,-0.0351106
4.57625,-0.0432068
4.5775,-0.0785812
4.57875,-0.0766345
4.58,-0.0410158
4.58125,-0.0104393
4.5825,0.0154039
4.58375,0.0278181
4.585,0.0348624
4.58625,0.0443058
4.5875,0.0810318
4.58875,0.076391
4.59,0.0350473
4.59125,0.00783847
4.5925,-0.0156474
4.59375,-0.0277294
4.595,-0.0351106
4.59625,-0.0432068
4.5975,-0.0785812
4.59875,-0.0769713
4.6,-0.0410158
4.60125,-0.0107761
4.6025,0.0154039
4.60375,0.0278181
4.605,0.0348624
4.60625,0.043969
4.6075,0.0806951
4.60875,0.0767232
4.61,0.0350473
4.61125,0.00783847
4.6125,-0.0156474
4.61375,-0.027388
4.615,-0.0344324
4.61625,-0.0428701
4.6175,-0.0782444
4.61875,-0.0769713
4.62,-0.0413526
4.62125,-0.0114496
4.6225,0.0150671
4.62375,0.0278181
4.625,0.0348624
4.62625,0.0443058
4.6275,0.0806951
4.62875,0.0770599
4.63,0.0350426
4.63125,0.00817524
4.6325,-0.0153106
4.63375,-0.0277294
4.635,-0.0347738
4.63625,-0.0425333
4.6375,-0.0779076
4.63875,-0.0773034
4.64,-0.0416893
4.64125,-0.0114496
4.6425,0.0150671
4.64375,0.0278181
4.645,0.0348624
4.64625,0.043969
4.6475,0.0803583
4.64875,0.0773967
4.65,0.0357208
4.65125,0.00783385
4.6525,-0.0153106
4.65375,-0.0277294
4.655,-0.0347738
4.65625,-0.0428701
4.6575,-0.0779123
4.65875,-0.0773034
4.66,-0.0420261
4.66125,-0.0117864
4.6625,0.0147304
4.66375,0.0278181
4.665,0.0348624
4.66625,0.0436322
4.6675,0.0800215
4.66875,0.0773967
4.67,0.0353794
4.67125,0.00817062
4.6725,-0.015652
4.67375,-0.0273927
4.675,-0.0347738
4.67625,-0.0425333
4.6775,-0.0775755
4.67875,-0.0776402
4.68,-0.0423629
4.68125,-0.0121232
4.6825,0.0143936
4.68375,0.0274813
4.685,0.0345211
4.68625,0.0432909
4.6875,0.0796801
4.68875,0.0777288
4.69,0.0357162
4.69125,0.00884415
4.6925,-0.0153153
4.69375,-0.0273927
4.695,-0.0347738
4.69625,-0.0421965
4.6975,-0.076902
4.69875,-0.0776402
4.7,-0.0426996
4.70125,-0.0124599
4.7025,0.0143936
4.70375,0.0274859
4.705,0.0341889
4.70625,0.0429541
4.7075,0.079348
4.70875,0.0777288
4.71,0.0360529
4.71125,0.00918092
4.7125,-0.0149785
4.71375,-0.0273927
4.715,-0.034437
4.71625,-0.0418551
4.7175,-0.0772387
4.71875,-0.0779769
4.72,-0.0430364
4.72125,-0.0124553
4.7225,0.0140568
4.72375,0.0274859
4.725,0.0345257
4.72625,0.0426173
4.7275,0.079348
4.72875,0.0780656
4.73,0.0363897
4.73125,0.00918092
4.7325,-0.0149785
4.73375,-0.0273927
4.735,-0.0341003
4.73625,-0.0418598
4.7375,-0.076902
4.73875,-0.0783137
4.74,-0.0430364
4.74125,-0.0127921
4.7425,0.0140568
4.74375,0.0271445
4.745,0.0341889
4.74625,0.0426173
4.7475,0.079348
4.74875,0.0784024
4.75,0.0367265
4.75125,0.00951307
4.7525,-0.0146417
4.75375,-0.0270559
4.755,-0.034437
4.75625,-0.0418551
4.7575,-0.0768973
4.75875,-0.0783091
4.76,-0.0430318
4.76125,-0.0131288
4.7625,0.0140615
4.76375,0.0271445
4.765,0.0345257
4.76625,0.0426173
4.7675,0.0790066
4.76875,0.0790759
4.77,0.0367265
4.77125,0.00951307
4.7725,-0.0149785
4.77375,-0.0273927
4.775,-0.034437
4.77625,-0.0415184
4.7775,-0.0765606
4.77875,-0.0786459
4.78,-0.0433685
4.78125,-0.0127875
4.7825,0.0140615
4.78375,0.0271445
4.785,0.0345257
4.78625,0.0422806
4.7875,0.0786698
4.78875,0.0790759
4.79,0.0370632
4.79125,0.00951307
4.7925,-0.0146417
4.79375,-0.0270559
4.795,-0.0341003
4.79625,-0.0415184
4.7975,-0.0762238
4.79875,-0.0786459
4.8,-0.0433685
4.80125,-0.0131242
4.8025,0.0137247
4.80375,0.0271492
4.805,0.0341889
4.80625,0.0419438
4.8075,0.0786698
4.80875,0.0794127
4.81,0.0374
4.81125,0.00984983
4.8125,-0.0146417
4.81375,-0.0270559
4.815,-0.0341003
4.81625,-0.0415184
4.8175,-0.075887
4.81875,-0.0789826
4.82,-0.0437053
4.82125,-0.013461
4.8225,0.0137247
4.82375,0.0271492
4.825,0.0341889
4.82625,0.0419438
4.8275,0.0783331
4.82875,0.0797494
4.83,0.0377368
4.83125,0.0101866
4.8325,-0.014305
4.83375,-0.0270559
4.835,-0.0341003
4.83625,-0.0415184
4.8375,-0.075887
4.83875,-0.0793194
4.84,-0.0440421
4.84125,-0.0137978
4.8425,0.0133879
4.84375,0.0271492
4.845,0.0341889
4.84625,0.041607
4.8475,0.0779963
4.84875,0.0797448
4.85,0.0380735
4.85125,0.0105234
4.8525,-0.014305
4.85375,-0.0267191
4.855,-0.0341003
4.85625,-0.0411816
4.8575,-0.0755503
4.85875,-0.0793148
4.86,-0.0443788
4.86125,-0.0141345
4.8625,0.0133879
4.86375,0.0271492
4.865,0.0341889
4.86625,0.041607
4.8675,0.0779963
4.86875,0.0800816
4.87,0.0384103
4.87125,0.0108601
4.8725,-0.0139682
4.87375,-0.0267191
4.875,-0.0337635
4.87625,-0.0408448
4.8775,-0.0752135
4.87875,-0.0796515
4.88,-0.0447156
4.88125,-0.0144713
4.8825,0.0130512
4.88375,0.0271492
4.885,0.0341889
4.88625,0.041607
4.8875,0.0776595
4.88875,0.0800816
4.89,0.0384103
4.89125,0.0105187
4.8925,-0.0143096
4.89375,-0.0267191
4.895,-0.0341003
4.89625,-0.0408448
4.8975,-0.0752135
4.89875,-0.0796515
4.9,-0.0450524
4.90125,-0.0144667
4.9025,0.0130512
4.90375,0.0268124
4.905,0.0338521
4.90625,0.0412703
4.9075,0.0773228
4.90875,0.0804183
4.91,0.0384057
4.91125,0.0108555
4.9125,-0.0139728
4.91375,-0.0267191
4.915,-0.0337635
4.91625,-0.0408448
4.9175,-0.0752135
4.91875,-0.0799883
4.92,-0.0450524
4.92125,-0.0148081
4.9225,0.0127144
4.92375,0.0271492
4.925,0.0338521
4.92625,0.0412749
4.9275,0.076986
4.92875,0.0804183
4.93,0.0387425
4.93125,0.0108555
4.9325,-0.0139728
4.93375,-0.0267191
4.935,-0.0337635
4.93625,-0.0405081
4.9375,-0.0745354
4.93875,-0.0803251
4.94,-0.0453891
4.94125,-0.0148034
4.9425,0.0130558
4.94375,0.0268124
4.945,0.0338521
4.94625,0.0409335
4.9475,0.0773228
4.94875,0.0807551
4.95,0.0390792
4.95125,0.0111923
4.9525,-0.013636
4.95375,-0.0267191
4.955,-0.0337635
4.95625,-0.0405081
4.9575,-0.0741986
4.95875,-0.0803251
4.96,-0.0457259
4.96125,-0.0151402
4.9625,0.012719
4.96375,0.0268124
4.965,0.0338568
4.96625,0.0405967
4.9675,0.076986
4.96875,0.0810873
4.97,0.039416
4.97125,0.011529
4.9725,-0.013636
4.97375,-0.0263824
4.975,-0.0334267
4.97625,-0.0401713
4.9775,-0.0738618
4.97875,-0.0803205
4.98,-0.0457213
4.98125,-0.0158137
4.9825,0.0123823
4.98375,0.0264756
4.985,0.0338568
4.98625,0.0409335
4.9875,0.076986
4.98875,0.0810873
4.99,0.0397528
4.99125,0.0118658
4.9925,-0.0132993
4.99375,-0.0263824
4.995,-0.0334267
4.99625,-0.0401713
4.9975,-0.0738618
4.99875,-0.0806572
